#  Created by Sandify
#  https://sandify.org
#  Version: 0.2.8
#
#  Machine type: Rectangular
#    Min X (mm): 0
#    Max X (mm): 500
#    Min Y (mm): 0
#    Max Y (mm): 500
#  Content type: shape
#  Layer:
#    Shape: Heart
#    Name: bubbles
#    Visible: true
#    Initial width: 22
#    Initial height: 22
#    X offset: 0
#    Y offset: 0
#    Rotate (degrees): 0
#    Reverse path: false
#    Number of loops: 16
#    When transforming shape: smear
#    Scale: true
#      Scale (+/-): 100
#      Scale by: constant
#    Spin: true
#      Spin (+/-): 2
#      Spin by: constant
#        Switchbacks: 0
#    Track: false
#    Fine tuning:
#      Connect to next layer: line
#      Draw portion of path (%): 100
#      Backtrack at end (%): 0
#      Rotate starting point (%): 0
#  Reverse export path: false
#
# File name: 'heart 1'
# File type: thetarho
#

0.00000 0.00875
0.00016 0.00891
0.00230 0.00924
0.00842 0.00974
0.01958 0.01040
0.03581 0.01122
0.05730 0.01218
0.08342 0.01325
0.11357 0.01444
0.14726 0.01571
0.18394 0.01705
0.22317 0.01843
0.26463 0.01985
0.30819 0.02127
0.35353 0.02269
0.40050 0.02409
0.44911 0.02544
0.49911 0.02675
0.55045 0.02801
0.60289 0.02920
0.65639 0.03031
0.71073 0.03135
0.76568 0.03231
0.82111 0.03319
0.87681 0.03397
0.93255 0.03465
0.98826 0.03524
1.04368 0.03571
1.09880 0.03606
1.15363 0.03629
1.20817 0.03638
1.26259 0.03633
1.31703 0.03614
1.37186 0.03579
1.42750 0.03530
1.48442 0.03467
1.54335 0.03391
1.60496 0.03304
1.67013 0.03207
1.73971 0.03105
1.81467 0.03001
1.89576 0.02899
1.98355 0.02805
2.07804 0.02724
2.17851 0.02663
2.28334 0.02625
2.39003 0.02616
2.49543 0.02637
2.59625 0.02688
2.68962 0.02768
2.77353 0.02872
2.84697 0.02996
2.90965 0.03134
2.96196 0.03282
3.00472 0.03434
3.03891 0.03586
3.06563 0.03734
3.08588 0.03875
3.10074 0.04007
3.11111 0.04125
3.11785 0.04230
3.12181 0.04318
3.12364 0.04389
3.12417 0.04441
3.12399 0.04474
3.12385 0.04488
3.12433 0.04482
3.12620 0.04456
3.13015 0.04411
3.13688 0.04347
3.14726 0.04266
3.16211 0.04170
3.18239 0.04061
3.20912 0.03940
3.24332 0.03813
3.28606 0.03683
3.33835 0.03554
3.40103 0.03433
3.47444 0.03326
3.55662 0.03241
3.55837 0.03240
3.64471 0.03184
3.65178 0.03180
3.74073 0.03154
3.75259 0.03152
3.84227 0.03157
3.85799 0.03160
3.94637 0.03195
3.96466 0.03205
4.04995 0.03267
4.06950 0.03285
4.15041 0.03372
4.16996 0.03397
4.24583 0.03504
4.26443 0.03535
4.33519 0.03658
4.35225 0.03692
4.41825 0.03828
4.43334 0.03863
4.49529 0.04007
4.50830 0.04040
4.56697 0.04188
4.57791 0.04218
4.63412 0.04366
4.64303 0.04392
4.69755 0.04536
4.70466 0.04556
4.75814 0.04694
4.76356 0.04709
4.81653 0.04836
4.82052 0.04846
4.87336 0.04960
4.87615 0.04966
4.92906 0.05064
4.93097 0.05068
4.98407 0.05148
4.98543 0.05151
5.03872 0.05212
5.03984 0.05213
5.09327 0.05256
5.09436 0.05257
5.14787 0.05280
5.14918 0.05281
5.20271 0.05286
5.20432 0.05286
5.25784 0.05274
5.25976 0.05274
5.31326 0.05245
5.31543 0.05244
5.36891 0.05198
5.37119 0.05196
5.42464 0.05135
5.42687 0.05133
5.48029 0.05056
5.48231 0.05053
5.53567 0.04960
5.53727 0.04957
5.59050 0.04848
5.59163 0.04846
5.64463 0.04720
5.64510 0.04719
5.69759 0.04578
5.74891 0.04422
5.79889 0.04253
5.84746 0.04071
5.89449 0.03878
5.93982 0.03677
5.98332 0.03470
6.02485 0.03259
6.06408 0.03049
6.10073 0.02842
6.13441 0.02642
6.16461 0.02453
6.19073 0.02279
6.21218 0.02125
6.22845 0.01993
6.23957 0.01888
6.24562 0.01811
6.24827 0.01750
6.24835 0.01774
6.25062 0.01833
6.25673 0.01925
6.26779 0.02049
6.28415 0.02201
6.30559 0.02380
6.33169 0.02582
6.36185 0.02802
6.39556 0.03038
6.43221 0.03285
6.47082 0.03536
6.47145 0.03540
6.51073 0.03784
6.51294 0.03799
6.55286 0.04034
6.55644 0.04057
6.59699 0.04284
6.60179 0.04313
6.64297 0.04529
6.64881 0.04563
6.69055 0.04768
6.69738 0.04804
6.73962 0.04997
6.74740 0.05035
6.79005 0.05215
6.79872 0.05254
6.84165 0.05420
6.85117 0.05459
6.89431 0.05611
6.90467 0.05650
6.94790 0.05788
6.95899 0.05826
7.00223 0.05949
7.01398 0.05986
7.05718 0.06095
7.06940 0.06128
7.11254 0.06223
7.12509 0.06254
7.16817 0.06334
7.18085 0.06361
7.22388 0.06426
7.23652 0.06448
7.27952 0.06498
7.29196 0.06515
7.33496 0.06549
7.34710 0.06561
7.39010 0.06576
7.40191 0.06583
7.44489 0.06579
7.45646 0.06581
7.49937 0.06557
7.51085 0.06553
7.55364 0.06510
7.56529 0.06500
7.60791 0.06436
7.62014 0.06420
7.66256 0.06338
7.67577 0.06315
7.71807 0.06216
7.73271 0.06186
7.77508 0.06073
7.79164 0.06033
7.83435 0.05911
7.85323 0.05862
7.89672 0.05734
7.91839 0.05676
7.96313 0.05546
7.98797 0.05480
8.03453 0.05352
8.06293 0.05282
8.11183 0.05161
8.14404 0.05090
8.19575 0.04979
8.23184 0.04912
8.28660 0.04817
8.32633 0.04759
8.38410 0.04684
8.42681 0.04640
8.48713 0.04590
8.53163 0.04564
8.59357 0.04542
8.63830 0.04537
8.70057 0.04545
8.74369 0.04562
8.80477 0.04603
8.84450 0.04639
8.90294 0.04713
8.93788 0.04765
8.99251 0.04869
9.02184 0.04933
9.07190 0.05065
9.09526 0.05133
9.14036 0.05291
9.15792 0.05358
9.19798 0.05538
9.21023 0.05597
9.24537 0.05797
9.25298 0.05843
9.28346 0.06060
9.28717 0.06088
9.31327 0.06320
9.31389 0.06326
9.33417 0.06550
9.34903 0.06757
9.35940 0.06942
9.36614 0.07102
9.37008 0.07235
9.37193 0.07338
9.37244 0.07410
9.37228 0.07450
9.37212 0.07457
9.37263 0.07431
9.37448 0.07373
9.37841 0.07283
9.38517 0.07164
9.39553 0.07017
9.41040 0.06845
9.43067 0.06652
9.45738 0.06443
9.48861 0.06241
9.49158 0.06222
9.52646 0.06037
9.53433 0.05998
9.57304 0.05832
9.58664 0.05778
9.62923 0.05633
9.64930 0.05571
9.69571 0.05450
9.72272 0.05387
9.77264 0.05292
9.80666 0.05237
9.85952 0.05171
9.90007 0.05131
9.95495 0.05095
10.00088 0.05077
10.05662 0.05072
10.10625 0.05081
10.16157 0.05106
10.21294 0.05144
10.26667 0.05197
10.31776 0.05263
10.36903 0.05341
10.41824 0.05432
10.46656 0.05531
10.51272 0.05642
10.55797 0.05759
10.60051 0.05884
10.64287 0.06012
10.68163 0.06145
10.72149 0.06282
10.75658 0.06416
10.79442 0.06556
10.82618 0.06687
10.86250 0.06827
10.89132 0.06950
10.92660 0.07087
10.95293 0.07199
10.98756 0.07328
11.01184 0.07427
11.04614 0.07545
11.06879 0.07631
11.10299 0.07736
11.12443 0.07807
11.15865 0.07896
11.17927 0.07954
11.21356 0.08025
11.23372 0.08071
11.26809 0.08122
11.28811 0.08156
11.32251 0.08188
11.34265 0.08211
11.37704 0.08223
11.39747 0.08236
11.43182 0.08230
11.45261 0.08231
11.48690 0.08208
11.50805 0.08199
11.54229 0.08159
11.56371 0.08139
11.59790 0.08083
11.61947 0.08053
11.65361 0.07982
11.67515 0.07943
11.70924 0.07856
11.73059 0.07807
11.76459 0.07705
11.78556 0.07648
11.81946 0.07530
11.83990 0.07465
11.87360 0.07331
11.89339 0.07259
11.92682 0.07110
11.94587 0.07031
11.97894 0.06866
11.99718 0.06781
12.02978 0.06601
12.04717 0.06512
12.07924 0.06318
12.09574 0.06225
12.12720 0.06018
12.14277 0.05922
12.17358 0.05703
12.18812 0.05607
12.21827 0.05378
12.23163 0.05284
12.26117 0.05045
12.27313 0.04956
12.30205 0.04710
12.31235 0.04629
12.34072 0.04377
12.34903 0.04309
12.37677 0.04051
12.38270 0.04000
12.40975 0.03737
12.41288 0.03709
12.43896 0.03442
12.43898 0.03442
12.46042 0.03204
12.47677 0.03001
12.48783 0.02839
12.49395 0.02721
12.49655 0.02625
12.49667 0.02658
12.49891 0.02742
12.50502 0.02876
12.51606 0.03057
12.53239 0.03281
12.55388 0.03543
12.57781 0.03811
12.57997 0.03838
12.60509 0.04103
12.61013 0.04160
12.63608 0.04421
12.64383 0.04505
12.67036 0.04760
12.68049 0.04866
12.70751 0.05115
12.71972 0.05237
12.74718 0.05478
12.76121 0.05612
12.78911 0.05846
12.80474 0.05987
12.83305 0.06211
12.85006 0.06357
12.87878 0.06570
12.89710 0.06717
12.92619 0.06918
12.94566 0.07064
12.97509 0.07253
12.99567 0.07395
13.02536 0.07570
13.04698 0.07707
13.07686 0.07868
13.09946 0.07999
13.12944 0.08145
13.15295 0.08269
13.18297 0.08401
13.20727 0.08516
13.23729 0.08634
13.26225 0.08740
13.29223 0.08843
13.31768 0.08938
13.34760 0.09027
13.37337 0.09111
13.40322 0.09184
13.42914 0.09256
13.45894 0.09315
13.48480 0.09373
13.51456 0.09416
13.54024 0.09460
13.56997 0.09486
13.59538 0.09515
13.62508 0.09523
13.65019 0.09537
13.67984 0.09526
13.70473 0.09523
13.73430 0.09493
13.75912 0.09473
13.78858 0.09423
13.81358 0.09386
13.84287 0.09316
13.86842 0.09262
13.89755 0.09173
13.92405 0.09100
13.95309 0.08995
13.98100 0.08904
14.01007 0.08786
14.03991 0.08676
14.06923 0.08548
14.09942 0.08428
14.10152 0.08420
14.13139 0.08287
14.16220 0.08162
14.16666 0.08144
14.19743 0.08010
14.22923 0.07882
14.23627 0.07856
14.26833 0.07723
14.30148 0.07599
14.31123 0.07564
14.34497 0.07438
14.37983 0.07320
14.39233 0.07281
14.42808 0.07166
14.46495 0.07060
14.48012 0.07020
14.51808 0.06920
14.55710 0.06830
14.57460 0.06794
14.61477 0.06714
14.65585 0.06645
14.67509 0.06617
14.71718 0.06562
14.75991 0.06518
14.77991 0.06502
14.82330 0.06475
14.86698 0.06460
14.88660 0.06457
14.93039 0.06461
14.97405 0.06477
14.99196 0.06487
15.03510 0.06523
15.07768 0.06571
15.09278 0.06591
15.13422 0.06659
15.17476 0.06738
15.18617 0.06763
15.22507 0.06862
15.26280 0.06971
15.27011 0.06993
15.30589 0.07121
15.34036 0.07257
15.34352 0.07271
15.37587 0.07424
15.40620 0.07581
15.43503 0.07757
15.45851 0.07912
15.48389 0.08109
15.50126 0.08252
15.52335 0.08466
15.53545 0.08590
15.55446 0.08820
15.56216 0.08917
15.57827 0.09160
15.58245 0.09225
15.59584 0.09479
15.59731 0.09508
15.60767 0.09759
15.61443 0.09975
15.61835 0.10152
15.62021 0.10287
15.62073 0.10378
15.62056 0.10425
15.62040 0.10425
15.62090 0.10380
15.62277 0.10290
15.62669 0.10156
15.63345 0.09981
15.64382 0.09768
15.65850 0.09523
15.65867 0.09520
15.67569 0.09287
15.67895 0.09244
15.69840 0.09024
15.70565 0.08945
15.72766 0.08740
15.73985 0.08632
15.76455 0.08443
15.78261 0.08313
15.81010 0.08144
15.83493 0.08001
15.86529 0.07853
15.89679 0.07712
15.89759 0.07708
15.93078 0.07583
15.96504 0.07467
15.97101 0.07448
16.00684 0.07349
16.04359 0.07260
16.05494 0.07235
16.09300 0.07164
16.13175 0.07104
16.14835 0.07082
16.18799 0.07042
16.22803 0.07013
16.24914 0.07002
16.28954 0.06993
16.32999 0.06995
16.35453 0.07001
16.39476 0.07022
16.43469 0.07054
16.46120 0.07082
16.50040 0.07131
16.53900 0.07191
16.56603 0.07240
16.60353 0.07315
16.64022 0.07399
16.66651 0.07467
16.70193 0.07563
16.73642 0.07668
16.76101 0.07750
16.79424 0.07863
16.82650 0.07984
16.84879 0.08075
16.87996 0.08200
16.91016 0.08333
16.92990 0.08427
16.95926 0.08560
16.98771 0.08701
17.00486 0.08791
17.03277 0.08928
17.05982 0.09072
17.07446 0.09155
17.10127 0.09293
17.12728 0.09436
17.13960 0.09508
17.16565 0.09642
17.19098 0.09781
17.20121 0.09841
17.22679 0.09966
17.25173 0.10098
17.26012 0.10145
17.28547 0.10260
17.31024 0.10381
17.31707 0.10416
17.34234 0.10516
17.36711 0.10623
17.37270 0.10648
17.39797 0.10732
17.42284 0.10823
17.42754 0.10841
17.45285 0.10906
17.47784 0.10978
17.48200 0.10991
17.50734 0.11037
17.53245 0.11090
17.53638 0.11099
17.56173 0.11125
17.58693 0.11159
17.59093 0.11165
17.61625 0.11172
17.64151 0.11187
17.64575 0.11190
17.67102 0.11179
17.69632 0.11176
17.70088 0.11176
17.72609 0.11148
17.75142 0.11127
17.75633 0.11123
17.78149 0.11079
17.80684 0.11041
17.81199 0.11034
17.83710 0.10974
17.86247 0.10920
17.86775 0.10910
17.89282 0.10834
17.91822 0.10766
17.92344 0.10752
17.94845 0.10661
17.97387 0.10577
17.97887 0.10561
18.00381 0.10455
18.02925 0.10355
18.03384 0.10338
18.05868 0.10217
18.08411 0.10101
18.08818 0.10084
18.11287 0.09947
18.13824 0.09816
18.14166 0.09799
18.16615 0.09646
18.19141 0.09499
18.19413 0.09484
18.21834 0.09316
18.24342 0.09154
18.24546 0.09141
18.26931 0.08958
18.29414 0.08781
18.29545 0.08772
18.31889 0.08575
18.34342 0.08383
18.34403 0.08379
18.36701 0.08170
18.39105 0.07966
18.41356 0.07745
18.43640 0.07537
18.45841 0.07306
18.47989 0.07097
18.50145 0.06858
18.52141 0.06653
18.54251 0.06406
18.56063 0.06210
18.58130 0.05956
18.59729 0.05776
18.61751 0.05517
18.63098 0.05358
18.65065 0.05095
18.66115 0.04965
18.68011 0.04698
18.68726 0.04605
18.70517 0.04333
18.70871 0.04284
18.72505 0.04010
18.73610 0.03790
18.74222 0.03630
18.74484 0.03500
18.74494 0.03542
18.74717 0.03652
18.75330 0.03827
18.76436 0.04065
18.77968 0.04341
18.78067 0.04360
18.79787 0.04632
18.80214 0.04705
18.82061 0.04974
18.82823 0.05094
18.84760 0.05358
18.85842 0.05519
18.87839 0.05778
18.89210 0.05972
18.91252 0.06226
18.92877 0.06446
18.94955 0.06694
18.96800 0.06933
18.98910 0.07174
19.00883 0.07417
19.00949 0.07426
19.03092 0.07658
19.05107 0.07893
19.05301 0.07917
19.07475 0.08139
19.09532 0.08366
19.09834 0.08400
19.12039 0.08612
19.14136 0.08828
19.14537 0.08871
19.16770 0.09071
19.18905 0.09275
19.19394 0.09323
19.21651 0.09510
19.23820 0.09701
19.24394 0.09754
19.26670 0.09927
19.28867 0.10105
19.29526 0.10160
19.31816 0.10318
19.34035 0.10482
19.34774 0.10539
19.37071 0.10682
19.39306 0.10831
19.40123 0.10888
19.42423 0.11017
19.44668 0.11151
19.45556 0.11207
19.47854 0.11321
19.50105 0.11441
19.51052 0.11494
19.53346 0.11593
19.55600 0.11699
19.56597 0.11748
19.58885 0.11833
19.61140 0.11924
19.62165 0.11968
19.64448 0.12038
19.66704 0.12114
19.67741 0.12151
19.70019 0.12206
19.72276 0.12268
19.73307 0.12298
19.75582 0.12337
19.77841 0.12382
19.78852 0.12405
19.81123 0.12427
19.83385 0.12455
19.84365 0.12470
19.86633 0.12474
19.88898 0.12484
19.89847 0.12491
19.92110 0.12476
19.94377 0.12468
19.95301 0.12466
19.97556 0.12431
19.99823 0.12403
20.00740 0.12394
20.02984 0.12339
20.05247 0.12291
20.06186 0.12273
20.08417 0.12198
20.10674 0.12130
20.11669 0.12103
20.13887 0.12010
20.16138 0.11924
20.17232 0.11885
20.19442 0.11777
20.21692 0.11675
20.22928 0.11622
20.25140 0.11501
20.27398 0.11386
20.28819 0.11318
20.31051 0.11188
20.33334 0.11063
20.34979 0.10979
20.37254 0.10843
20.39584 0.10713
20.41494 0.10613
20.43839 0.10476
20.46244 0.10344
20.48455 0.10231
20.50899 0.10096
20.53408 0.09967
20.55949 0.09846
20.58524 0.09717
20.61167 0.09595
20.63875 0.09480
20.64061 0.09473
20.66792 0.09355
20.69591 0.09244
20.72456 0.09141
20.72840 0.09128
20.75744 0.09025
20.78713 0.08930
20.81742 0.08844
20.82288 0.08829
20.85367 0.08747
20.88501 0.08672
20.91686 0.08607
20.92336 0.08595
20.95567 0.08537
20.98840 0.08487
21.02146 0.08447
21.02819 0.08440
21.06158 0.08410
21.09516 0.08390
21.12887 0.08379
21.13487 0.08378
21.16863 0.08378
21.20235 0.08389
21.23595 0.08408
21.24026 0.08412
21.27359 0.08445
21.30662 0.08487
21.33929 0.08539
21.34105 0.08542
21.37315 0.08607
21.40473 0.08681
21.43445 0.08760
21.46464 0.08856
21.49416 0.08961
21.51839 0.09054
21.54622 0.09179
21.57328 0.09311
21.59181 0.09408
21.61702 0.09559
21.64143 0.09716
21.65447 0.09805
21.67699 0.09979
21.69872 0.10158
21.70679 0.10228
21.72665 0.10422
21.74578 0.10621
21.74954 0.10661
21.76687 0.10874
21.78353 0.11090
21.78374 0.11092
21.79867 0.11320
21.81044 0.11509
21.82314 0.11750
21.83073 0.11900
21.84131 0.12153
21.84558 0.12258
21.85417 0.12520
21.85595 0.12576
21.86265 0.12846
21.86270 0.12848
21.86663 0.13069
21.86849 0.13236
21.86901 0.13347
21.86884 0.13400
21.86868 0.13394
21.86918 0.13329
21.87105 0.13207
21.87498 0.13029
21.88173 0.12798
21.89120 0.12542
21.89209 0.12518
21.90333 0.12272
21.90695 0.12195
21.92001 0.11960
21.92724 0.11835
21.94221 0.11613
21.95394 0.11447
21.97093 0.11240
21.98814 0.11041
22.00724 0.10850
22.02702 0.10664
22.03089 0.10629
22.05220 0.10457
22.07422 0.10290
22.08320 0.10225
22.10678 0.10074
22.13106 0.09929
22.14586 0.09846
22.17169 0.09718
22.19818 0.09598
22.21928 0.09508
22.24721 0.09407
22.27572 0.09313
22.30323 0.09232
22.33295 0.09159
22.36312 0.09094
22.39370 0.09038
22.39662 0.09033
22.42765 0.08991
22.45894 0.08956
22.49044 0.08931
22.49743 0.08927
22.52911 0.08915
22.56084 0.08912
22.59256 0.08918
22.60281 0.08922
22.63441 0.08940
22.66585 0.08967
22.69708 0.09004
22.70948 0.09020
22.74033 0.09067
22.77082 0.09123
22.80093 0.09186
22.81432 0.09218
22.84387 0.09290
22.87295 0.09370
22.90150 0.09458
22.91480 0.09502
22.94275 0.09596
22.97014 0.09697
22.99695 0.09805
23.00928 0.09858
23.03554 0.09968
23.06120 0.10086
23.08626 0.10210
23.09707 0.10266
23.12172 0.10389
23.14577 0.10519
23.16923 0.10654
23.17818 0.10709
23.20142 0.10840
23.22410 0.10977
23.24620 0.11120
23.25313 0.11167
23.27524 0.11302
23.29681 0.11443
23.31784 0.11589
23.32273 0.11624
23.34397 0.11759
23.36473 0.11900
23.38499 0.12045
23.38788 0.12067
23.40853 0.12198
23.42874 0.12334
23.44849 0.12476
23.44949 0.12483
23.46978 0.12606
23.48966 0.12735
23.50840 0.12863
23.52850 0.12976
23.54824 0.13093
23.56535 0.13201
23.58538 0.13299
23.60511 0.13402
23.62098 0.13490
23.64101 0.13571
23.66079 0.13657
23.67582 0.13727
23.69587 0.13790
23.71573 0.13858
23.73027 0.13911
23.75034 0.13954
23.77027 0.14003
23.78467 0.14042
23.80473 0.14065
23.82471 0.14094
23.83921 0.14119
23.85924 0.14124
23.87924 0.14134
23.89402 0.14145
23.91401 0.14131
23.93402 0.14123
23.94916 0.14120
23.96909 0.14089
23.98910 0.14064
24.00460 0.14048
24.02448 0.14000
24.04449 0.13959
24.06027 0.13930
24.08010 0.13866
24.10011 0.13809
24.11602 0.13767
24.13582 0.13689
24.15583 0.13616
24.17171 0.13562
24.19146 0.13469
24.21148 0.13380
24.22715 0.13316
24.24684 0.13207
24.26685 0.13103
24.28212 0.13029
24.30172 0.12905
24.32170 0.12786
24.33645 0.12703
24.35593 0.12563
24.37584 0.12429
24.38994 0.12338
24.40925 0.12184
24.42905 0.12034
24.44242 0.11937
24.46150 0.11767
24.48114 0.11602
24.49374 0.11501
24.51254 0.11316
24.53196 0.11136
24.54374 0.11031
24.56221 0.10833
24.58136 0.10639
24.59231 0.10533
24.61042 0.10322
24.62928 0.10115
24.63934 0.10010
24.65706 0.09788
24.67559 0.09569
24.68466 0.09467
24.70200 0.09235
24.72023 0.09006
24.72819 0.08911
24.74515 0.08670
24.76307 0.08433
24.76967 0.08349
24.78628 0.08102
24.80394 0.07856
24.80891 0.07790
24.82518 0.07536
24.84257 0.07285
24.84557 0.07243
24.86147 0.06984
24.87859 0.06726
24.87925 0.06717
24.89471 0.06453
24.90942 0.06222
24.92430 0.05954
24.93553 0.05767
24.94959 0.05496
24.95700 0.05363
24.96983 0.05088
24.97332 0.05018
24.98437 0.04741
24.99048 0.04539
24.99310 0.04375
24.99321 0.04425
24.99547 0.04561
25.00159 0.04779
25.01203 0.05057
25.01262 0.05074
25.02514 0.05349
25.02897 0.05439
25.04297 0.05711
25.05041 0.05868
25.06546 0.06136
25.07652 0.06350
25.09227 0.06614
25.10670 0.06877
25.12294 0.07136
25.13804 0.07397
25.14038 0.07439
25.15697 0.07693
25.17250 0.07948
25.17705 0.08027
25.19392 0.08274
25.20982 0.08523
25.21628 0.08630
25.23342 0.08870
25.24965 0.09112
25.25777 0.09239
25.27516 0.09471
25.29172 0.09705
25.30129 0.09847
25.31893 0.10068
25.33580 0.10293
25.34663 0.10444
25.36451 0.10655
25.38170 0.10869
25.39365 0.11025
25.41176 0.11224
25.42923 0.11426
25.44222 0.11583
25.46052 0.11768
25.47824 0.11958
25.49222 0.12114
25.51067 0.12285
25.52861 0.12460
25.54353 0.12613
25.56209 0.12770
25.58019 0.12931
25.59601 0.13078
25.61462 0.13220
25.63284 0.13366
25.64950 0.13507
25.66813 0.13634
25.68641 0.13765
25.70383 0.13898
25.72244 0.14010
25.74076 0.14126
25.75876 0.14248
25.75881 0.14248
25.77739 0.14346
25.79571 0.14448
25.81376 0.14555
25.81424 0.14558
25.83277 0.14640
25.85108 0.14728
25.86917 0.14821
25.86992 0.14825
25.88840 0.14892
25.90671 0.14965
25.92484 0.15043
25.92569 0.15047
25.94413 0.15099
25.96243 0.15157
25.98059 0.15220
25.98135 0.15223
25.99975 0.15259
26.01806 0.15301
26.03626 0.15348
26.03679 0.15349
26.05516 0.15369
26.07348 0.15394
26.09174 0.15424
26.09193 0.15424
26.11027 0.15426
26.12859 0.15433
26.14675 0.15445
26.16504 0.15428
26.18336 0.15416
26.20129 0.15409
26.21951 0.15372
26.23781 0.15340
26.25568 0.15314
26.27380 0.15257
26.29205 0.15205
26.31014 0.15159
26.32815 0.15082
26.34634 0.15011
26.36469 0.14945
26.36497 0.14944
26.38287 0.14849
26.40100 0.14760
26.41933 0.14675
26.42060 0.14670
26.43843 0.14560
26.45653 0.14455
26.47489 0.14354
26.47756 0.14340
26.49541 0.14218
26.51356 0.14100
26.53202 0.13986
26.53646 0.13960
26.55447 0.13828
26.57283 0.13701
26.59152 0.13579
26.59807 0.13537
26.61643 0.13400
26.63516 0.13267
26.65427 0.13139
26.66322 0.13082
26.68216 0.12943
26.70149 0.12809
26.72123 0.12679
26.73282 0.12607
26.75257 0.12470
26.77275 0.12338
26.79336 0.12212
26.80778 0.12128
26.82859 0.11998
26.84986 0.11873
26.87156 0.11753
26.88888 0.11664
