#  Created by Sandify
#  https://sandify.org
#  Version: 0.2.8
#
#  Machine type: Polar
#    Max radius (mm): 100
#    Start point: none
#    End point: none
#  Content type: shape
#  Layer:
#    Shape: Circle
#    Name: polygon
#    Number of lobes: 1
#    Direction: clockwise
#    Visible: true
#    Initial width: 10
#    Initial height: 10
#    X offset: 0
#    Y offset: 0
#    Rotate (degrees): 0
#    Reverse path: true
#    Number of loops: 21
#    When transforming shape: smear
#    Scale: true
#      Scale (+/-): 41
#      Scale by: constant
#    Spin: false
#    Track: false
#    Fine tuning:
#      Connect to next layer: line
#      Draw portion of path (%): 100
#      Backtrack at end (%): 0
#      Rotate starting point (%): 0
#  Reverse export path: false
#
# File name: 'spiral_fine'
# File type: thetarho
#

1.61989 0.30261
1.64070 0.30248
1.66153 0.30248
1.66897 0.30251
1.68980 0.30238
1.71063 0.30238
1.71806 0.30241
1.73889 0.30228
1.75974 0.30228
1.76714 0.30231
1.78798 0.30218
1.80883 0.30218
1.81623 0.30221
1.83707 0.30208
1.85793 0.30208
1.86533 0.30211
1.88618 0.30198
1.90704 0.30198
1.91441 0.30201
1.93527 0.30188
1.95614 0.30188
1.96350 0.30191
1.98437 0.30178
2.00524 0.30178
2.01258 0.30181
2.03346 0.30168
2.05434 0.30167
2.06167 0.30171
2.08255 0.30157
2.10344 0.30157
2.11075 0.30161
2.13164 0.30147
2.15254 0.30147
2.15984 0.30151
2.18074 0.30137
2.20165 0.30137
2.20893 0.30140
2.22984 0.30127
2.25075 0.30127
2.25802 0.30130
2.27893 0.30117
2.29985 0.30117
2.30711 0.30120
2.32803 0.30107
2.34895 0.30107
2.35619 0.30110
2.37712 0.30097
2.39805 0.30097
2.40528 0.30100
2.42621 0.30087
2.44715 0.30087
2.45438 0.30090
2.47531 0.30077
2.49626 0.30077
2.50346 0.30080
2.52440 0.30067
2.54535 0.30067
2.55255 0.30070
2.57350 0.30057
2.59446 0.30057
2.60164 0.30060
2.62260 0.30046
2.64356 0.30046
2.65072 0.30049
2.67168 0.30036
2.69266 0.30036
2.69980 0.30039
2.72078 0.30026
2.74176 0.30026
2.74889 0.30030
2.76987 0.30016
2.79086 0.30016
2.79798 0.30019
2.81897 0.30006
2.83997 0.30006
2.84706 0.30009
2.86806 0.29996
2.88906 0.29996
2.89616 0.29999
2.91716 0.29986
2.93817 0.29986
2.94525 0.29989
2.96625 0.29976
2.98727 0.29976
2.99434 0.29979
3.01535 0.29966
3.03638 0.29966
3.04342 0.29969
3.06444 0.29956
3.08547 0.29956
3.09250 0.29959
3.11353 0.29945
3.13457 0.29946
3.14159 0.29949
3.16263 0.29935
3.18367 0.29935
3.19069 0.29938
3.21173 0.29925
3.23278 0.29925
3.23977 0.29928
3.26082 0.29915
3.28188 0.29915
3.28885 0.29918
3.30991 0.29905
3.33098 0.29905
3.33794 0.29908
3.35901 0.29895
3.38008 0.29895
3.38703 0.29898
3.40810 0.29885
3.42918 0.29885
3.43612 0.29888
3.45720 0.29875
3.47828 0.29875
3.48520 0.29878
3.50629 0.29865
3.52738 0.29865
3.53430 0.29868
3.55539 0.29855
3.57649 0.29855
3.58338 0.29858
3.60448 0.29845
3.62559 0.29845
3.63247 0.29848
3.65357 0.29834
3.67469 0.29835
3.68155 0.29838
3.70267 0.29824
3.72379 0.29824
3.73064 0.29827
3.75176 0.29814
3.77289 0.29814
3.77973 0.29817
3.80086 0.29804
3.82200 0.29804
3.82881 0.29807
3.84995 0.29794
3.87110 0.29794
3.87790 0.29797
3.89905 0.29784
3.92020 0.29784
3.92699 0.29787
3.94814 0.29774
3.96930 0.29774
3.97607 0.29777
3.99723 0.29764
4.01840 0.29764
4.02517 0.29767
4.04633 0.29754
4.06750 0.29754
4.07425 0.29757
4.09542 0.29744
4.11660 0.29744
4.12334 0.29747
4.14452 0.29734
4.16571 0.29734
4.17243 0.29737
4.19361 0.29724
4.21481 0.29724
4.22151 0.29727
4.24271 0.29714
4.26391 0.29714
4.27060 0.29717
4.29180 0.29703
4.31301 0.29704
4.31970 0.29707
4.34090 0.29693
4.36212 0.29693
4.36878 0.29696
4.38999 0.29683
4.41122 0.29683
4.41786 0.29686
4.43909 0.29673
4.46032 0.29673
4.46695 0.29676
4.48818 0.29663
4.50942 0.29663
4.51604 0.29666
4.53728 0.29653
4.55853 0.29653
4.56513 0.29656
4.58637 0.29643
4.60763 0.29643
4.61421 0.29646
4.63546 0.29633
4.65672 0.29633
4.66331 0.29636
4.68456 0.29623
4.70583 0.29623
4.71239 0.29626
4.73365 0.29613
4.75493 0.29613
4.76147 0.29616
4.78275 0.29603
4.80403 0.29603
4.81056 0.29605
4.83184 0.29592
4.85313 0.29593
4.85965 0.29595
4.88094 0.29582
4.90224 0.29583
4.90874 0.29585
4.93003 0.29572
4.95134 0.29572
4.95782 0.29575
4.97912 0.29562
5.00044 0.29562
5.00691 0.29565
5.02822 0.29552
5.04954 0.29552
5.05600 0.29555
5.07732 0.29542
5.09864 0.29542
5.10509 0.29545
5.12641 0.29532
5.14774 0.29532
5.15417 0.29535
5.17550 0.29522
5.19684 0.29522
5.20327 0.29525
5.22460 0.29512
5.24595 0.29512
5.25235 0.29515
5.27369 0.29502
5.29505 0.29502
5.30144 0.29505
5.32279 0.29491
5.34416 0.29492
5.35052 0.29494
5.37188 0.29481
5.39325 0.29482
5.39961 0.29484
5.42098 0.29471
5.44236 0.29472
5.44870 0.29474
5.47007 0.29461
5.49146 0.29462
5.49779 0.29464
5.51917 0.29451
5.54056 0.29451
5.54688 0.29454
5.56827 0.29441
5.58967 0.29441
5.59596 0.29444
5.61736 0.29431
5.63876 0.29431
5.64505 0.29434
5.66645 0.29421
5.68787 0.29421
5.69414 0.29424
5.71555 0.29411
5.73697 0.29411
5.74322 0.29414
5.76464 0.29401
5.78606 0.29401
5.79231 0.29404
5.81373 0.29391
5.83517 0.29391
5.84139 0.29394
5.86283 0.29381
5.88427 0.29381
5.89049 0.29384
5.91193 0.29371
5.93338 0.29371
5.93957 0.29373
5.96102 0.29360
5.98248 0.29361
5.98866 0.29363
6.01011 0.29350
6.03158 0.29351
6.03775 0.29353
6.05921 0.29340
6.08069 0.29341
6.08684 0.29343
6.10831 0.29330
6.12979 0.29330
6.13592 0.29333
6.15740 0.29320
6.17888 0.29320
6.18501 0.29323
6.20650 0.29310
6.22799 0.29310
6.23410 0.29313
6.25559 0.29300
6.27709 0.29300
6.28319 0.29303
6.30469 0.29290
6.32619 0.29290
6.33227 0.29293
6.35378 0.29280
6.37530 0.29280
6.38136 0.29283
6.40288 0.29270
6.42440 0.29270
6.43045 0.29273
6.45198 0.29260
6.47351 0.29260
6.47953 0.29263
6.50106 0.29249
6.52260 0.29250
6.52862 0.29252
6.55016 0.29239
6.57170 0.29240
6.57771 0.29242
6.59926 0.29229
6.62081 0.29230
6.62680 0.29232
6.64835 0.29219
6.66991 0.29220
6.67588 0.29222
6.69744 0.29209
6.71901 0.29210
6.72497 0.29212
6.74654 0.29199
6.76811 0.29199
6.77406 0.29202
6.79564 0.29189
6.81722 0.29189
6.82314 0.29192
6.84473 0.29179
6.86632 0.29179
6.87223 0.29182
6.89382 0.29169
6.91542 0.29169
6.92132 0.29172
6.94292 0.29159
6.96452 0.29159
6.97041 0.29162
6.99201 0.29149
7.01362 0.29149
7.01950 0.29152
7.04111 0.29138
7.06273 0.29139
7.06858 0.29141
7.09020 0.29128
7.11183 0.29129
7.11768 0.29131
7.13930 0.29118
7.16094 0.29119
7.16676 0.29121
7.18839 0.29108
7.21004 0.29109
7.21585 0.29111
7.23749 0.29098
7.25914 0.29099
7.26493 0.29101
7.28658 0.29088
7.30824 0.29089
7.31402 0.29091
7.33567 0.29078
7.35734 0.29078
7.36311 0.29081
7.38478 0.29068
7.40645 0.29068
7.41220 0.29071
7.43387 0.29058
7.45555 0.29058
7.46128 0.29061
7.48296 0.29048
7.50465 0.29048
7.51037 0.29051
7.53206 0.29037
7.55376 0.29038
7.55946 0.29040
7.58115 0.29027
7.60285 0.29028
7.60855 0.29030
7.63025 0.29017
7.65196 0.29018
7.65764 0.29020
7.67935 0.29007
7.70106 0.29008
7.70672 0.29010
7.72844 0.28997
7.75017 0.28998
7.75581 0.29000
7.77753 0.28987
7.79926 0.28988
7.80489 0.28990
7.82662 0.28977
7.84837 0.28978
7.85398 0.28980
7.87572 0.28967
7.89747 0.28967
7.90307 0.28970
7.92482 0.28957
7.94658 0.28957
7.95215 0.28960
7.97391 0.28947
7.99567 0.28947
8.00124 0.28950
8.02301 0.28937
8.04478 0.28937
8.05033 0.28940
8.07210 0.28927
8.09388 0.28927
8.09941 0.28930
8.12119 0.28917
8.14298 0.28917
8.14850 0.28920
8.17029 0.28906
8.19208 0.28907
8.19759 0.28909
8.21938 0.28896
8.24118 0.28897
8.24668 0.28899
8.26848 0.28886
8.29029 0.28887
8.29577 0.28889
8.31758 0.28876
8.33940 0.28877
8.34486 0.28879
8.36668 0.28866
8.38850 0.28867
8.39394 0.28869
8.41576 0.28856
8.43760 0.28857
8.44303 0.28859
8.46486 0.28846
8.48670 0.28847
8.49211 0.28849
8.51395 0.28836
8.53580 0.28836
8.54121 0.28839
8.56306 0.28826
8.58491 0.28826
8.59030 0.28829
8.61215 0.28815
8.63402 0.28816
8.63938 0.28818
8.66124 0.28805
8.68311 0.28806
8.68846 0.28809
8.71033 0.28795
8.73221 0.28796
8.73756 0.28798
8.75943 0.28785
8.78132 0.28786
8.78664 0.28788
8.80852 0.28775
8.83042 0.28776
8.83573 0.28778
8.85762 0.28765
8.87952 0.28766
8.88481 0.28768
8.90671 0.28755
8.92862 0.28756
8.93391 0.28758
8.95581 0.28745
8.97773 0.28746
8.98299 0.28748
9.00491 0.28735
9.02683 0.28736
9.03208 0.28738
9.05400 0.28725
9.07593 0.28726
9.08117 0.28728
9.10310 0.28715
9.12504 0.28716
9.13026 0.28718
9.15220 0.28705
9.17415 0.28705
9.17934 0.28708
9.20129 0.28695
9.22324 0.28695
9.22843 0.28698
9.25039 0.28684
9.27235 0.28685
9.27751 0.28687
9.29948 0.28674
9.32145 0.28675
9.32661 0.28677
9.34858 0.28664
9.37056 0.28665
9.37568 0.28667
9.39766 0.28654
9.41965 0.28655
9.42478 0.28657
9.44676 0.28644
9.46876 0.28645
9.47386 0.28647
9.49585 0.28634
9.51786 0.28635
9.52295 0.28637
9.54496 0.28624
9.56696 0.28625
9.57204 0.28627
9.59405 0.28614
9.61607 0.28615
9.62112 0.28617
9.64314 0.28604
9.66517 0.28604
9.67021 0.28607
9.69224 0.28594
9.71427 0.28595
9.71930 0.28597
9.74133 0.28584
9.76337 0.28584
9.76839 0.28587
9.79043 0.28573
9.81248 0.28574
9.81748 0.28576
9.83953 0.28563
9.86159 0.28564
9.86657 0.28566
9.88862 0.28553
9.91069 0.28554
9.91565 0.28556
9.93771 0.28543
9.95978 0.28544
9.96473 0.28546
9.98680 0.28533
10.00888 0.28534
10.01382 0.28536
10.03590 0.28523
10.05799 0.28524
10.06292 0.28526
10.08500 0.28513
10.10710 0.28514
10.11200 0.28516
10.13409 0.28503
10.15619 0.28504
10.16109 0.28506
10.18319 0.28493
10.20530 0.28494
10.21018 0.28496
10.23229 0.28483
10.25440 0.28484
10.25927 0.28486
10.28139 0.28473
10.30351 0.28473
10.30835 0.28475
10.33048 0.28462
10.35261 0.28463
10.35744 0.28465
10.37957 0.28452
10.40172 0.28453
10.40652 0.28455
10.42867 0.28442
10.45082 0.28443
10.45561 0.28445
10.47776 0.28432
10.49992 0.28433
10.50470 0.28435
10.52686 0.28422
10.54902 0.28423
10.55378 0.28425
10.57595 0.28412
10.59812 0.28413
10.60288 0.28415
10.62505 0.28402
10.64723 0.28403
10.65196 0.28405
10.67414 0.28392
10.69633 0.28393
10.70105 0.28395
10.72324 0.28382
10.74544 0.28383
10.75014 0.28385
10.77233 0.28372
10.79454 0.28373
10.79923 0.28374
10.82143 0.28361
10.84365 0.28362
10.84831 0.28364
10.87052 0.28351
10.89274 0.28353
10.89740 0.28355
10.91962 0.28342
10.94185 0.28342
10.94649 0.28344
10.96872 0.28331
10.99095 0.28332
10.99557 0.28334
11.01781 0.28321
11.04005 0.28322
11.04466 0.28324
11.06690 0.28311
11.08916 0.28312
11.09375 0.28314
11.11600 0.28301
11.13826 0.28302
11.14283 0.28304
11.16509 0.28291
11.18736 0.28292
11.19192 0.28294
11.21419 0.28281
11.23646 0.28282
11.24101 0.28284
11.26328 0.28271
11.28557 0.28272
11.29009 0.28274
11.31238 0.28261
11.33467 0.28262
11.33919 0.28264
11.36148 0.28251
11.38378 0.28252
11.38827 0.28253
11.41057 0.28240
11.43288 0.28241
11.43736 0.28243
11.45967 0.28230
11.48198 0.28231
11.48645 0.28233
11.50876 0.28220
11.53109 0.28221
11.53553 0.28223
11.55786 0.28210
11.58019 0.28211
11.58462 0.28213
11.60695 0.28200
11.62929 0.28201
11.63371 0.28203
11.65605 0.28190
11.67840 0.28191
11.68279 0.28193
11.70514 0.28180
11.72750 0.28181
11.73188 0.28183
11.75424 0.28170
11.77660 0.28171
11.78097 0.28173
11.80334 0.28160
11.82571 0.28161
11.83006 0.28163
11.85243 0.28150
11.87481 0.28151
11.87915 0.28153
11.90153 0.28140
11.92392 0.28141
11.92823 0.28143
11.95062 0.28130
11.97302 0.28131
11.97732 0.28133
11.99971 0.28120
12.02212 0.28121
12.02641 0.28122
12.04881 0.28109
12.07122 0.28110
12.07549 0.28112
12.09791 0.28099
12.12033 0.28100
12.12458 0.28102
12.14700 0.28089
12.16943 0.28090
12.17367 0.28092
12.19610 0.28079
12.21854 0.28080
12.22276 0.28082
12.24520 0.28069
12.26764 0.28070
12.27185 0.28072
12.29429 0.28059
12.31675 0.28060
12.32093 0.28062
12.34338 0.28049
12.36584 0.28050
12.37003 0.28052
12.39248 0.28039
12.41495 0.28040
12.41911 0.28042
12.44158 0.28029
12.46405 0.28030
12.46820 0.28032
12.49068 0.28019
12.51316 0.28020
12.51728 0.28022
12.53977 0.28008
12.56226 0.28010
12.56637 0.28011
12.58886 0.27998
12.61136 0.28000
12.61546 0.28001
12.63796 0.27988
12.66047 0.27989
12.66455 0.27991
12.68705 0.27978
12.70957 0.27979
12.71363 0.27981
12.73615 0.27968
12.75868 0.27969
12.76271 0.27971
12.78524 0.27958
12.80777 0.27959
12.81181 0.27961
12.83434 0.27948
12.85688 0.27949
12.86090 0.27951
12.88344 0.27938
12.90599 0.27939
12.90998 0.27941
12.93253 0.27928
12.95508 0.27929
12.95907 0.27931
12.98163 0.27918
13.00419 0.27919
13.00815 0.27921
13.03072 0.27908
13.05329 0.27909
13.05725 0.27910
13.07982 0.27897
13.10240 0.27899
13.10633 0.27900
13.12891 0.27887
13.15150 0.27889
13.15542 0.27890
13.17801 0.27877
13.20061 0.27879
13.20451 0.27880
13.22711 0.27867
13.24971 0.27868
13.25360 0.27870
13.27620 0.27857
13.29882 0.27858
13.30268 0.27860
13.32530 0.27847
13.34792 0.27848
13.35177 0.27850
13.37439 0.27837
13.39702 0.27838
13.40086 0.27840
13.42349 0.27827
13.44613 0.27828
13.44994 0.27830
13.47258 0.27817
13.49523 0.27818
13.49903 0.27820
13.52168 0.27807
13.54433 0.27808
13.54812 0.27810
13.57078 0.27797
13.59344 0.27798
13.59721 0.27800
13.61987 0.27787
13.64254 0.27788
13.64629 0.27789
13.66896 0.27776
13.69164 0.27778
13.69538 0.27779
13.71806 0.27766
13.74075 0.27768
13.74447 0.27769
13.76716 0.27756
13.78985 0.27758
13.79356 0.27759
13.81625 0.27746
13.83896 0.27748
13.84264 0.27749
13.86535 0.27736
13.88806 0.27737
13.89173 0.27739
13.91444 0.27726
13.93716 0.27727
13.94082 0.27729
13.96354 0.27716
13.98627 0.27717
13.98990 0.27719
14.01263 0.27706
14.03537 0.27707
14.03899 0.27709
14.06173 0.27696
14.08448 0.27697
14.08808 0.27699
14.11082 0.27686
14.13358 0.27687
14.13717 0.27688
14.15992 0.27676
14.18268 0.27677
14.18625 0.27678
14.20901 0.27665
14.23178 0.27667
14.23534 0.27668
14.25811 0.27655
14.28089 0.27657
14.28443 0.27658
14.30721 0.27645
14.33000 0.27647
14.33351 0.27648
14.35630 0.27635
14.37910 0.27636
14.38260 0.27638
14.40540 0.27625
14.42821 0.27626
14.43169 0.27628
14.45449 0.27615
14.47731 0.27616
14.48078 0.27618
14.50359 0.27605
14.52641 0.27606
14.52987 0.27608
14.55269 0.27595
14.57552 0.27596
14.57896 0.27598
14.60178 0.27585
14.62462 0.27586
14.62805 0.27588
14.65088 0.27575
14.67373 0.27576
14.67712 0.27577
14.69997 0.27565
14.72283 0.27566
14.72621 0.27568
14.74907 0.27554
14.77193 0.27556
14.77531 0.27557
14.79817 0.27544
14.82104 0.27546
14.82439 0.27547
14.84726 0.27534
14.87014 0.27536
14.87347 0.27537
14.89635 0.27524
14.91924 0.27526
14.92257 0.27527
14.94545 0.27514
14.96835 0.27515
14.97165 0.27517
14.99455 0.27504
15.01746 0.27505
15.02074 0.27507
15.04365 0.27494
15.06656 0.27495
15.06983 0.27497
15.09274 0.27484
15.11567 0.27485
15.11891 0.27487
15.14184 0.27474
15.16477 0.27475
15.16800 0.27477
15.19093 0.27464
15.21387 0.27465
15.21708 0.27466
15.24002 0.27454
15.26297 0.27455
15.26618 0.27457
15.28913 0.27444
15.31208 0.27445
15.31526 0.27446
15.33822 0.27433
15.36118 0.27435
15.36435 0.27436
15.38731 0.27423
15.41029 0.27425
15.41344 0.27426
15.43641 0.27413
15.45939 0.27415
15.46252 0.27416
15.48551 0.27403
15.50849 0.27405
15.51162 0.27406
15.53461 0.27393
15.55761 0.27395
15.56071 0.27396
15.58370 0.27383
15.60671 0.27384
15.60978 0.27386
15.63279 0.27373
15.65580 0.27374
15.65888 0.27376
15.68189 0.27363
15.70492 0.27364
15.70796 0.27366
15.73099 0.27353
15.75402 0.27354
15.75705 0.27355
15.78008 0.27343
15.80312 0.27344
15.80614 0.27345
15.82918 0.27333
15.85223 0.27334
15.85522 0.27335
15.87827 0.27322
15.90133 0.27324
15.90431 0.27325
15.92736 0.27312
15.95043 0.27314
15.95340 0.27315
15.97647 0.27302
15.99954 0.27304
16.00249 0.27305
16.02557 0.27292
16.04865 0.27294
16.05158 0.27295
16.07466 0.27282
16.09775 0.27284
16.10067 0.27285
16.12376 0.27272
16.14686 0.27274
16.14976 0.27275
16.17286 0.27262
16.19596 0.27263
16.19884 0.27265
16.22195 0.27252
16.24507 0.27254
16.24793 0.27255
16.27105 0.27242
16.29417 0.27243
16.29702 0.27245
16.32014 0.27232
16.34328 0.27233
16.34610 0.27234
16.36923 0.27221
16.39237 0.27223
16.39518 0.27224
16.41832 0.27211
16.44147 0.27213
16.44427 0.27214
16.46743 0.27201
16.49059 0.27203
16.49336 0.27204
16.51652 0.27191
16.53969 0.27193
16.54245 0.27194
16.56562 0.27181
16.58880 0.27183
16.59154 0.27184
16.61472 0.27171
16.63790 0.27173
16.64062 0.27174
16.66381 0.27161
16.68700 0.27163
16.68971 0.27164
16.71291 0.27151
16.73611 0.27153
16.73880 0.27154
16.76200 0.27141
16.78521 0.27142
16.78789 0.27143
16.81110 0.27131
16.83432 0.27132
16.83697 0.27134
16.86019 0.27121
16.88342 0.27122
16.88607 0.27123
16.90929 0.27111
16.93253 0.27112
16.93514 0.27114
16.95838 0.27101
16.98163 0.27102
16.98423 0.27103
17.00748 0.27090
17.03073 0.27092
17.03332 0.27093
17.05658 0.27080
17.07984 0.27082
17.08240 0.27083
17.10567 0.27070
17.12894 0.27072
17.13150 0.27073
17.15477 0.27060
17.17805 0.27062
17.18058 0.27063
17.20387 0.27050
17.22716 0.27052
17.22967 0.27053
17.25296 0.27040
17.27626 0.27042
17.27876 0.27043
17.30206 0.27030
17.32536 0.27032
17.32785 0.27033
17.35115 0.27020
17.37447 0.27022
17.37693 0.27023
17.40024 0.27010
17.42357 0.27012
17.42602 0.27013
17.44935 0.27000
17.47268 0.27001
17.47511 0.27002
17.49845 0.26990
17.52179 0.26991
17.52420 0.26992
17.54754 0.26979
17.57089 0.26981
17.57328 0.26982
17.59663 0.26969
17.61999 0.26971
17.62237 0.26972
17.64573 0.26959
17.66910 0.26961
17.67146 0.26962
17.69482 0.26949
17.71820 0.26951
17.72054 0.26952
17.74392 0.26939
17.76730 0.26941
17.76963 0.26942
17.79302 0.26929
17.81641 0.26931
17.81872 0.26932
17.84212 0.26919
17.86552 0.26921
17.86781 0.26922
17.89121 0.26909
17.91462 0.26911
17.91690 0.26912
17.94031 0.26899
17.96373 0.26900
17.96598 0.26901
17.98940 0.26889
18.01283 0.26891
18.01507 0.26892
18.03850 0.26879
18.06194 0.26880
18.06416 0.26881
18.08760 0.26868
18.11104 0.26870
18.11324 0.26871
18.13669 0.26858
18.16014 0.26860
18.16233 0.26861
18.18578 0.26848
18.20925 0.26850
18.21143 0.26851
18.23489 0.26838
18.25836 0.26840
18.26051 0.26841
18.28398 0.26828
18.30746 0.26830
18.30959 0.26831
18.33308 0.26818
18.35657 0.26820
18.35868 0.26821
18.38217 0.26808
18.40567 0.26810
18.40776 0.26811
18.43126 0.26798
18.45477 0.26800
18.45686 0.26801
18.48037 0.26788
18.50389 0.26790
18.50595 0.26791
18.52947 0.26778
18.55299 0.26779
18.55503 0.26780
18.57856 0.26767
18.60209 0.26769
18.60411 0.26770
18.62765 0.26757
18.65119 0.26759
18.65320 0.26760
18.67675 0.26747
18.70030 0.26749
18.70229 0.26750
18.72584 0.26737
18.74940 0.26739
18.75138 0.26740
18.77494 0.26727
18.79851 0.26729
18.80047 0.26730
18.82404 0.26717
18.84762 0.26719
18.84956 0.26720
18.87314 0.26707
18.89672 0.26709
18.89865 0.26710
18.92224 0.26697
18.94583 0.26699
18.94773 0.26700
18.97133 0.26687
18.99493 0.26689
18.99681 0.26690
19.02042 0.26677
19.04404 0.26679
19.04591 0.26679
19.06953 0.26667
19.09315 0.26669
19.09499 0.26670
19.11862 0.26657
19.14225 0.26659
19.14408 0.26660
19.16772 0.26646
19.19136 0.26648
19.19317 0.26649
19.21681 0.26636
19.24046 0.26638
19.24226 0.26639
19.26591 0.26626
19.28957 0.26628
19.29134 0.26629
19.31500 0.26616
19.33867 0.26618
19.34043 0.26619
19.36410 0.26606
19.38778 0.26608
19.38952 0.26609
19.41320 0.26596
19.43688 0.26598
19.43861 0.26599
19.46229 0.26586
19.48599 0.26588
19.48769 0.26589
19.51138 0.26576
19.53509 0.26578
19.53678 0.26579
19.56048 0.26566
19.58420 0.26568
19.58587 0.26568
19.60958 0.26556
19.63330 0.26558
19.63495 0.26558
19.65868 0.26546
19.68241 0.26548
19.68405 0.26548
19.70778 0.26536
19.73152 0.26538
19.73313 0.26538
19.75687 0.26525
19.78062 0.26527
19.78221 0.26528
19.80596 0.26515
19.82972 0.26517
19.83131 0.26518
19.85507 0.26505
19.87884 0.26507
19.88039 0.26508
19.90416 0.26495
19.92794 0.26497
19.92948 0.26498
19.95325 0.26485
19.97704 0.26487
19.97857 0.26488
20.00236 0.26475
20.02615 0.26477
20.02765 0.26478
20.05145 0.26465
20.07525 0.26467
20.07674 0.26468
20.10055 0.26455
20.12436 0.26457
20.12583 0.26458
20.14964 0.26445
20.17346 0.26447
20.17491 0.26447
20.19873 0.26435
20.22257 0.26437
20.22400 0.26437
20.24783 0.26424
20.27167 0.26427
20.27309 0.26427
20.29693 0.26414
20.32078 0.26417
20.32218 0.26417
20.34603 0.26404
20.36989 0.26406
20.37127 0.26407
20.39513 0.26394
20.41900 0.26396
20.42035 0.26397
20.44422 0.26384
20.46810 0.26386
20.46944 0.26387
20.49331 0.26374
20.51720 0.26376
20.51853 0.26377
20.54242 0.26364
