#  Created by Sandify
#  https://sandify.org
#  Version: 0.2.8
#
#  Machine type: Polar
#    Max radius (mm): 100
#    Start point: none
#    End point: none
#  Content type: shape
#  Layer:
#    Shape: Circle
#    Name: polygon
#    Number of lobes: 1
#    Direction: clockwise
#    Visible: true
#    Initial width: 4
#    Initial height: 4
#    X offset: 0
#    Y offset: 0
#    Rotate (degrees): 0
#    Reverse path: true
#    Number of loops: 45
#    When transforming shape: smear
#    Scale: true
#      Scale (+/-): 52
#      Scale by: constant
#    Spin: false
#    Track: false
#    Fine tuning:
#      Connect to next layer: line
#      Draw portion of path (%): 100
#      Backtrack at end (%): 0
#      Rotate starting point (%): 0
#  Reverse export path: false
#
# File name: 'spiral_finer'
# File type: thetarho
#

1.61988 0.30739
1.64038 0.30728
1.66088 0.30730
1.66897 0.30734
1.68947 0.30723
1.70997 0.30724
1.71806 0.30729
1.73856 0.30717
1.75907 0.30719
1.76714 0.30724
1.78765 0.30712
1.80816 0.30714
1.81623 0.30718
1.83674 0.30707
1.85726 0.30709
1.86532 0.30713
1.88583 0.30702
1.90635 0.30704
1.91441 0.30708
1.93492 0.30697
1.95544 0.30699
1.96349 0.30703
1.98401 0.30692
2.00454 0.30694
2.01258 0.30698
2.03311 0.30687
2.05364 0.30689
2.06167 0.30693
2.08220 0.30682
2.10273 0.30684
2.11076 0.30688
2.13129 0.30677
2.15183 0.30678
2.15984 0.30682
2.18038 0.30671
2.20092 0.30673
2.20893 0.30677
2.22947 0.30666
2.25001 0.30668
2.25802 0.30672
2.27856 0.30661
2.29910 0.30663
2.30711 0.30667
2.32765 0.30656
2.34820 0.30658
2.35619 0.30662
2.37674 0.30651
2.39730 0.30653
2.40528 0.30657
2.42583 0.30646
2.44639 0.30648
2.45437 0.30652
2.47493 0.30641
2.49549 0.30642
2.50346 0.30647
2.52402 0.30636
2.54458 0.30637
2.55254 0.30642
2.57310 0.30630
2.59367 0.30632
2.60163 0.30637
2.62220 0.30625
2.64277 0.30627
2.65072 0.30631
2.67128 0.30620
2.69186 0.30622
2.69980 0.30626
2.72037 0.30615
2.74095 0.30617
2.74889 0.30621
2.76946 0.30610
2.79005 0.30612
2.79798 0.30616
2.81855 0.30605
2.83914 0.30607
2.84707 0.30611
2.86765 0.30600
2.88824 0.30601
2.89616 0.30606
2.91674 0.30595
2.93733 0.30596
2.94524 0.30601
2.96583 0.30589
2.98643 0.30591
2.99433 0.30595
3.01492 0.30584
3.03552 0.30586
3.04341 0.30590
3.06401 0.30579
3.08461 0.30581
3.09251 0.30585
3.11311 0.30574
3.13371 0.30576
3.14159 0.30580
3.16220 0.30569
3.18280 0.30571
3.19068 0.30575
3.21129 0.30564
3.23190 0.30566
3.23976 0.30570
3.26037 0.30559
3.28099 0.30561
3.28885 0.30565
3.30946 0.30554
3.33008 0.30556
3.33795 0.30560
3.35856 0.30549
3.37918 0.30551
3.38703 0.30555
3.40765 0.30543
3.42828 0.30545
3.43612 0.30549
3.45675 0.30538
3.47738 0.30540
3.48520 0.30544
3.50583 0.30533
3.52646 0.30535
3.53429 0.30539
3.55492 0.30528
3.57556 0.30530
3.58338 0.30534
3.60402 0.30523
3.62466 0.30525
3.63247 0.30529
3.65311 0.30518
3.67375 0.30520
3.68155 0.30524
3.70219 0.30513
3.72284 0.30515
3.73064 0.30519
3.75128 0.30508
3.77193 0.30510
3.77973 0.30514
3.80038 0.30503
3.82103 0.30505
3.82882 0.30509
3.84947 0.30497
3.87013 0.30499
3.87790 0.30503
3.89856 0.30492
3.91922 0.30494
3.92699 0.30498
3.94765 0.30487
3.96831 0.30489
3.97608 0.30493
3.99674 0.30482
4.01741 0.30484
4.02517 0.30488
4.04583 0.30477
4.06651 0.30479
4.07425 0.30483
4.09492 0.30472
4.11559 0.30474
4.12334 0.30478
4.14401 0.30467
4.16469 0.30469
4.17243 0.30473
4.19310 0.30462
4.21378 0.30464
4.22151 0.30468
4.24219 0.30457
4.26288 0.30458
4.27060 0.30462
4.29129 0.30451
4.31197 0.30453
4.31969 0.30457
4.34037 0.30446
4.36106 0.30448
4.36878 0.30452
4.38947 0.30441
4.41017 0.30443
4.41787 0.30447
4.43856 0.30436
4.45926 0.30438
4.46695 0.30442
4.48765 0.30431
4.50835 0.30433
4.51603 0.30437
4.53673 0.30426
4.55744 0.30428
4.56513 0.30432
4.58583 0.30421
4.60654 0.30423
4.61421 0.30427
4.63492 0.30415
4.65563 0.30417
4.66330 0.30422
4.68401 0.30410
4.70473 0.30412
4.71239 0.30416
4.73310 0.30405
4.75382 0.30407
4.76147 0.30411
4.78219 0.30400
4.80291 0.30402
4.81056 0.30406
4.83128 0.30395
4.85201 0.30397
4.85965 0.30401
4.88037 0.30390
4.90110 0.30392
4.90874 0.30396
4.92946 0.30385
4.95020 0.30387
4.95782 0.30391
4.97855 0.30380
4.99929 0.30382
5.00692 0.30386
5.02765 0.30375
5.04839 0.30377
5.05600 0.30380
5.07674 0.30369
5.09749 0.30371
5.10509 0.30376
5.12583 0.30364
5.14657 0.30366
5.15417 0.30370
5.17492 0.30359
5.19567 0.30361
5.20326 0.30365
5.22401 0.30354
5.24476 0.30356
5.25235 0.30360
5.27310 0.30349
5.29386 0.30351
5.30144 0.30355
5.32219 0.30344
5.34296 0.30346
5.35053 0.30350
5.37129 0.30339
5.39205 0.30341
5.39962 0.30345
5.42038 0.30334
5.44115 0.30336
5.44870 0.30340
5.46946 0.30329
5.49023 0.30330
5.49779 0.30334
5.51856 0.30323
5.53933 0.30325
5.54688 0.30329
5.56765 0.30318
5.58843 0.30320
5.59597 0.30324
5.61674 0.30313
5.63753 0.30315
5.64505 0.30319
5.66583 0.30308
5.68662 0.30310
5.69414 0.30314
5.71492 0.30303
5.73571 0.30305
5.74323 0.30309
5.76402 0.30298
5.78481 0.30300
5.79231 0.30304
5.81310 0.30293
5.83389 0.30295
5.84140 0.30299
5.86219 0.30287
5.88299 0.30290
5.89048 0.30293
5.91128 0.30282
5.93208 0.30284
5.93958 0.30288
5.96038 0.30277
5.98118 0.30279
5.98866 0.30283
6.00947 0.30272
6.03028 0.30274
6.03774 0.30278
6.05855 0.30267
6.07937 0.30269
6.08684 0.30273
6.10765 0.30262
6.12847 0.30264
6.13593 0.30268
6.15674 0.30257
6.17756 0.30259
6.18501 0.30263
6.20583 0.30252
6.22665 0.30254
6.23410 0.30258
6.25492 0.30247
6.27575 0.30249
6.28319 0.30253
6.30401 0.30242
6.32484 0.30244
6.33228 0.30247
6.35311 0.30236
6.37394 0.30238
6.38136 0.30242
6.40219 0.30231
6.42303 0.30233
6.43045 0.30237
6.45129 0.30226
6.47213 0.30228
6.47954 0.30232
6.50038 0.30221
6.52122 0.30223
6.52862 0.30227
6.54946 0.30216
6.57031 0.30218
6.57771 0.30222
6.59856 0.30211
6.61941 0.30213
6.62680 0.30217
6.64765 0.30206
6.66851 0.30208
6.67588 0.30212
6.69674 0.30201
6.71760 0.30203
6.72497 0.30207
6.74583 0.30195
6.76669 0.30197
6.77406 0.30201
6.79492 0.30190
6.81579 0.30192
6.82315 0.30196
6.84401 0.30185
6.86489 0.30187
6.87224 0.30191
6.89311 0.30180
6.91398 0.30182
6.92132 0.30186
6.94219 0.30175
6.96307 0.30177
6.97041 0.30181
6.99129 0.30170
7.01217 0.30172
7.01950 0.30176
7.04038 0.30165
7.06126 0.30167
7.06858 0.30171
7.08947 0.30160
7.11035 0.30162
7.11767 0.30166
7.13855 0.30155
7.15945 0.30157
7.16676 0.30161
7.18765 0.30149
7.20854 0.30152
7.21585 0.30155
7.23674 0.30144
7.25764 0.30146
7.26494 0.30150
7.28583 0.30139
7.30673 0.30141
7.31402 0.30145
7.33492 0.30134
7.35583 0.30136
7.36311 0.30140
7.38401 0.30129
7.40492 0.30131
7.41219 0.30135
7.43310 0.30124
7.45401 0.30126
7.46128 0.30130
7.48219 0.30119
7.50311 0.30121
7.51037 0.30125
7.53128 0.30113
7.55220 0.30116
7.55946 0.30119
7.58038 0.30108
7.60130 0.30111
7.60855 0.30114
7.62947 0.30103
7.65040 0.30105
7.65763 0.30109
7.67855 0.30098
7.69948 0.30100
7.70672 0.30104
7.72765 0.30093
7.74858 0.30095
7.75580 0.30099
7.77674 0.30088
7.79767 0.30090
7.80489 0.30094
7.82583 0.30083
7.84677 0.30085
7.85398 0.30089
7.87492 0.30078
7.89587 0.30080
7.90307 0.30084
7.92401 0.30073
7.94496 0.30075
7.95215 0.30079
7.97310 0.30068
7.99405 0.30070
8.00125 0.30073
8.02220 0.30062
8.04315 0.30065
8.05033 0.30068
8.07128 0.30057
8.09224 0.30060
8.09942 0.30063
8.12038 0.30052
8.14134 0.30054
8.14851 0.30058
8.16947 0.30047
8.19043 0.30049
8.19759 0.30053
8.21855 0.30042
8.23952 0.30044
8.24668 0.30048
8.26765 0.30037
8.28862 0.30039
8.29577 0.30043
8.31674 0.30032
8.33772 0.30034
8.34485 0.30038
8.36583 0.30027
8.38681 0.30029
8.39394 0.30032
8.41492 0.30021
8.43590 0.30024
8.44303 0.30027
8.46401 0.30016
8.48500 0.30019
8.49211 0.30022
8.51310 0.30011
8.53409 0.30013
8.54121 0.30017
8.56220 0.30006
8.58319 0.30008
8.59030 0.30012
8.61129 0.30001
8.63229 0.30003
8.63938 0.30007
8.66038 0.29996
8.68138 0.29998
8.68847 0.30002
8.70947 0.29991
8.73047 0.29993
8.73755 0.29997
8.75856 0.29986
8.77957 0.29988
8.78664 0.29991
8.80765 0.29980
8.82866 0.29983
8.83573 0.29987
8.85674 0.29976
8.87775 0.29978
8.88482 0.29981
8.90583 0.29970
8.92685 0.29973
8.93391 0.29976
8.95493 0.29965
8.97595 0.29967
8.98299 0.29971
9.00401 0.29960
9.02504 0.29962
9.03208 0.29966
9.05310 0.29955
9.07413 0.29957
9.08117 0.29961
9.10219 0.29950
9.12323 0.29952
9.13026 0.29956
9.15129 0.29945
9.17233 0.29947
9.17934 0.29951
9.20038 0.29940
9.22142 0.29942
9.22843 0.29945
9.24947 0.29934
9.27052 0.29937
9.27751 0.29940
9.29855 0.29929
9.31960 0.29932
9.32660 0.29935
9.34765 0.29924
9.36870 0.29926
9.37569 0.29930
9.39674 0.29919
9.41780 0.29921
9.42478 0.29925
9.44583 0.29914
9.46689 0.29916
9.47387 0.29920
9.49493 0.29909
9.51599 0.29911
9.52295 0.29915
9.54401 0.29904
9.56508 0.29906
9.57204 0.29910
9.59310 0.29899
9.61417 0.29901
9.62113 0.29905
9.64220 0.29894
9.66327 0.29896
9.67021 0.29899
9.69128 0.29888
9.71236 0.29891
9.71930 0.29894
9.74038 0.29883
9.76146 0.29886
9.76839 0.29889
9.78946 0.29878
9.81055 0.29880
9.81748 0.29884
9.83856 0.29873
9.85965 0.29875
9.86656 0.29879
9.88765 0.29868
9.90874 0.29870
9.91565 0.29874
9.93674 0.29863
9.95784 0.29865
9.96474 0.29869
9.98583 0.29858
10.00693 0.29860
10.01383 0.29863
10.03493 0.29853
10.05603 0.29855
10.06292 0.29859
10.08402 0.29847
10.10513 0.29850
10.11200 0.29853
10.13311 0.29842
10.15422 0.29845
10.16108 0.29848
10.18219 0.29837
10.20331 0.29839
10.21018 0.29843
10.23129 0.29832
10.25241 0.29834
10.25926 0.29838
10.28038 0.29827
10.30150 0.29829
10.30835 0.29833
10.32947 0.29822
10.35059 0.29824
10.35744 0.29828
10.37856 0.29817
10.39969 0.29819
10.40652 0.29823
10.42765 0.29812
10.44878 0.29814
10.45562 0.29818
10.47675 0.29807
10.49788 0.29809
10.50470 0.29812
10.52583 0.29801
10.54697 0.29804
10.55379 0.29807
10.57492 0.29796
10.59607 0.29799
10.60287 0.29802
10.62401 0.29791
10.64516 0.29793
10.65196 0.29797
10.67310 0.29786
10.69425 0.29788
10.70105 0.29792
10.72220 0.29781
10.74336 0.29783
10.75013 0.29787
10.77128 0.29776
10.79244 0.29778
10.79922 0.29782
10.82038 0.29771
10.84154 0.29773
10.84832 0.29777
10.86947 0.29766
10.89064 0.29768
10.89740 0.29771
10.91856 0.29760
10.93973 0.29763
10.94648 0.29766
10.96765 0.29755
10.98882 0.29758
10.99557 0.29761
11.01674 0.29750
11.03792 0.29753
11.04466 0.29756
11.06583 0.29745
11.08701 0.29747
11.09374 0.29751
11.11492 0.29740
11.13610 0.29742
11.14284 0.29746
11.16402 0.29735
11.18520 0.29737
11.19192 0.29741
11.21310 0.29730
11.23429 0.29732
11.24101 0.29736
11.26220 0.29725
11.28339 0.29727
11.29010 0.29730
11.31129 0.29719
11.33249 0.29722
11.33919 0.29725
11.36038 0.29714
11.38158 0.29717
11.38827 0.29720
11.40947 0.29709
11.43068 0.29712
11.43736 0.29715
11.45856 0.29704
11.47977 0.29707
11.48645 0.29710
11.50765 0.29699
11.52886 0.29701
11.53554 0.29705
11.55675 0.29694
11.57796 0.29696
11.58462 0.29700
11.60584 0.29689
11.62706 0.29691
11.63371 0.29695
11.65493 0.29684
11.67615 0.29686
11.68280 0.29689
11.70402 0.29678
11.72525 0.29681
11.73189 0.29684
11.75311 0.29673
11.77434 0.29676
11.78097 0.29679
11.80220 0.29668
11.82343 0.29671
11.83006 0.29674
11.85129 0.29663
11.87253 0.29666
11.87915 0.29669
11.90038 0.29658
11.92162 0.29661
11.92823 0.29664
11.94947 0.29653
11.97072 0.29655
11.97732 0.29659
11.99856 0.29648
12.01981 0.29650
12.02641 0.29654
12.04765 0.29643
12.06891 0.29645
12.07550 0.29649
12.09675 0.29638
12.11801 0.29640
12.12458 0.29644
12.14583 0.29633
12.16709 0.29635
12.17367 0.29638
12.19493 0.29627
12.21619 0.29630
12.22277 0.29633
12.24403 0.29622
12.26529 0.29625
12.27185 0.29628
12.29311 0.29617
12.31439 0.29620
12.32094 0.29623
12.34220 0.29612
12.36348 0.29614
12.37002 0.29618
12.39130 0.29607
12.41257 0.29609
12.41911 0.29613
12.44038 0.29602
12.46167 0.29604
12.46819 0.29608
12.48947 0.29597
12.51076 0.29599
12.51729 0.29602
12.53857 0.29592
12.55986 0.29594
12.56637 0.29597
12.58766 0.29586
12.60895 0.29589
12.61546 0.29592
12.63675 0.29581
12.65805 0.29584
12.66455 0.29587
12.68585 0.29576
12.70715 0.29579
12.71364 0.29582
12.73493 0.29571
12.75624 0.29574
12.76272 0.29577
12.78402 0.29566
12.80533 0.29568
12.81181 0.29572
12.83312 0.29561
12.85443 0.29563
12.86090 0.29567
12.88220 0.29556
12.90352 0.29558
12.90999 0.29561
12.93130 0.29551
12.95262 0.29553
12.95907 0.29557
12.98038 0.29546
13.00170 0.29548
13.00816 0.29551
13.02948 0.29540
13.05081 0.29543
13.05725 0.29546
13.07857 0.29535
13.09990 0.29538
13.10633 0.29541
13.12766 0.29530
13.14899 0.29533
13.15542 0.29536
13.17675 0.29525
13.19809 0.29528
13.20450 0.29531
13.22584 0.29520
13.24718 0.29522
13.25359 0.29526
13.27493 0.29515
13.29628 0.29517
13.30268 0.29521
13.32402 0.29510
13.34537 0.29512
13.35177 0.29516
13.37311 0.29505
13.39447 0.29507
13.40086 0.29510
13.42221 0.29499
13.44356 0.29502
13.44994 0.29505
13.47130 0.29494
13.49266 0.29497
13.49903 0.29500
13.52039 0.29489
13.54175 0.29492
13.54812 0.29495
13.56948 0.29484
13.59085 0.29487
13.59720 0.29490
13.61856 0.29479
13.63993 0.29481
13.64629 0.29485
13.66766 0.29474
13.68903 0.29476
13.69538 0.29480
13.71676 0.29469
13.73813 0.29471
13.74446 0.29474
13.76584 0.29464
13.78722 0.29466
13.79356 0.29469
13.81494 0.29459
13.83632 0.29461
13.84264 0.29464
13.86402 0.29453
13.88541 0.29456
13.89173 0.29459
13.91312 0.29448
13.93451 0.29451
13.94082 0.29454
13.96221 0.29443
13.98360 0.29446
13.98990 0.29449
14.01130 0.29438
14.03270 0.29440
14.03899 0.29444
14.06039 0.29433
14.08179 0.29435
14.08808 0.29439
14.10948 0.29428
14.13089 0.29430
14.13717 0.29434
14.15857 0.29423
14.17998 0.29425
14.18625 0.29428
14.20766 0.29418
14.22908 0.29420
14.23535 0.29423
14.25676 0.29412
14.27818 0.29415
14.28443 0.29418
14.30584 0.29407
14.32727 0.29410
14.33352 0.29413
14.35494 0.29402
14.37637 0.29405
14.38260 0.29408
14.40402 0.29397
14.42545 0.29400
14.43169 0.29403
14.45312 0.29392
14.47455 0.29395
14.48078 0.29398
14.50221 0.29387
14.52365 0.29389
14.52986 0.29393
14.55130 0.29382
14.57274 0.29384
14.57895 0.29388
14.60039 0.29377
14.62183 0.29379
14.62805 0.29382
14.64949 0.29371
14.67094 0.29374
14.67713 0.29377
14.69857 0.29366
14.72003 0.29369
14.72622 0.29372
14.74767 0.29361
14.76912 0.29364
14.77530 0.29367
14.79675 0.29356
14.81821 0.29359
14.82439 0.29362
14.84585 0.29351
14.86731 0.29354
14.87348 0.29357
14.89494 0.29346
14.91641 0.29348
14.92257 0.29352
14.94403 0.29341
14.96550 0.29343
14.97165 0.29347
14.99312 0.29336
15.01460 0.29338
15.02074 0.29341
15.04221 0.29331
15.06369 0.29333
15.06983 0.29336
15.09131 0.29325
15.11279 0.29328
15.11891 0.29331
15.14039 0.29320
15.16188 0.29323
15.16800 0.29326
15.18949 0.29315
15.21098 0.29318
15.21709 0.29321
15.23857 0.29310
15.26007 0.29313
15.26618 0.29316
15.28767 0.29305
15.30917 0.29308
15.31526 0.29311
15.33676 0.29300
15.35826 0.29302
15.36435 0.29306
15.38585 0.29295
15.40736 0.29297
15.41343 0.29300
15.43494 0.29290
15.45644 0.29292
15.46253 0.29295
15.48404 0.29284
15.50555 0.29287
15.51162 0.29290
15.53313 0.29279
15.55464 0.29282
15.56071 0.29285
15.58222 0.29274
15.60374 0.29277
15.60979 0.29280
15.63131 0.29269
15.65283 0.29272
15.65888 0.29275
15.68040 0.29264
15.70193 0.29267
15.70796 0.29270
15.72949 0.29259
15.75102 0.29262
15.75706 0.29265
15.77858 0.29254
15.80012 0.29256
15.80614 0.29260
15.82768 0.29249
15.84921 0.29251
15.85523 0.29254
15.87676 0.29244
15.89830 0.29246
15.90431 0.29249
15.92585 0.29238
15.94740 0.29241
15.95340 0.29244
15.97495 0.29233
15.99650 0.29236
16.00249 0.29239
16.02403 0.29228
16.04559 0.29231
16.05157 0.29234
16.07312 0.29223
16.09468 0.29226
16.10066 0.29229
16.12221 0.29218
16.14378 0.29220
16.14975 0.29224
16.17131 0.29213
16.19288 0.29216
16.19884 0.29219
16.22040 0.29208
16.24197 0.29210
16.24793 0.29214
16.26949 0.29203
16.29107 0.29205
16.29701 0.29208
16.31858 0.29197
16.34016 0.29200
16.34611 0.29203
16.36768 0.29192
16.38926 0.29195
16.39518 0.29198
16.41676 0.29187
16.43835 0.29190
16.44427 0.29193
16.46586 0.29182
16.48744 0.29185
16.49336 0.29188
16.51495 0.29177
16.53654 0.29180
16.54244 0.29183
16.56403 0.29172
16.58563 0.29174
16.59154 0.29178
16.61313 0.29167
16.63473 0.29169
16.64063 0.29172
16.66222 0.29162
16.68383 0.29164
16.68971 0.29167
16.71131 0.29156
16.73292 0.29159
16.73880 0.29162
16.76040 0.29151
16.78201 0.29154
16.78788 0.29157
16.80949 0.29146
16.83111 0.29149
16.83697 0.29152
16.85858 0.29141
16.88020 0.29144
16.88606 0.29147
16.90767 0.29136
16.92930 0.29139
16.93515 0.29142
16.95677 0.29131
16.97839 0.29134
16.98423 0.29137
17.00586 0.29126
17.02749 0.29129
17.03332 0.29132
17.05495 0.29121
17.07659 0.29123
17.08241 0.29126
17.10404 0.29115
17.12568 0.29118
17.13150 0.29121
17.15313 0.29110
17.17477 0.29113
17.18058 0.29116
17.20222 0.29105
17.22387 0.29108
17.22967 0.29111
17.25131 0.29100
17.27296 0.29103
17.27876 0.29106
17.30041 0.29095
17.32206 0.29098
17.32785 0.29101
17.34950 0.29090
17.37115 0.29093
17.37694 0.29096
17.39859 0.29085
17.42025 0.29088
17.42602 0.29091
17.44768 0.29080
17.46935 0.29083
17.47511 0.29086
17.49677 0.29075
17.51844 0.29077
17.52420 0.29080
17.54587 0.29070
17.56754 0.29072
17.57328 0.29075
17.59495 0.29064
17.61663 0.29067
17.62237 0.29070
17.64404 0.29059
17.66572 0.29062
17.67146 0.29065
17.69314 0.29054
17.71482 0.29057
17.72055 0.29060
17.74223 0.29049
17.76392 0.29052
17.76963 0.29055
17.79131 0.29044
17.81301 0.29047
17.81872 0.29050
17.84041 0.29039
17.86210 0.29042
17.86780 0.29045
17.88949 0.29034
17.91119 0.29037
17.91690 0.29040
17.93859 0.29029
17.96029 0.29031
17.96599 0.29034
17.98769 0.29023
18.00939 0.29026
18.01507 0.29029
18.03677 0.29018
18.05848 0.29021
18.06416 0.29024
18.08587 0.29013
18.10758 0.29016
18.11324 0.29019
18.13495 0.29008
18.15667 0.29011
18.16234 0.29014
18.18405 0.29003
18.20577 0.29006
18.21141 0.29009
18.23313 0.28998
18.25486 0.29001
18.26051 0.29004
18.28223 0.28993
18.30396 0.28996
18.30959 0.28998
18.33132 0.28988
18.35305 0.28990
18.35868 0.28993
18.38041 0.28983
18.40214 0.28985
18.40777 0.28988
18.42951 0.28977
18.45125 0.28980
18.45685 0.28983
18.47859 0.28972
18.50034 0.28975
18.50594 0.28978
18.52768 0.28967
18.54943 0.28970
18.55503 0.28973
18.57677 0.28962
18.59853 0.28965
18.60412 0.28968
18.62587 0.28957
18.64762 0.28960
18.65320 0.28963
18.67495 0.28952
18.69671 0.28955
18.70229 0.28958
18.72405 0.28947
18.74581 0.28950
18.75138 0.28952
18.77314 0.28942
18.79491 0.28945
18.80047 0.28947
18.82224 0.28937
18.84401 0.28939
18.84956 0.28942
18.87132 0.28931
18.89310 0.28934
18.89865 0.28937
18.92042 0.28926
18.94220 0.28929
18.94773 0.28932
18.96951 0.28921
18.99129 0.28924
18.99681 0.28927
19.01859 0.28916
19.04038 0.28919
19.04590 0.28922
19.06769 0.28911
19.08948 0.28914
19.09499 0.28917
19.11678 0.28906
19.13857 0.28908
19.14408 0.28911
19.16587 0.28901
19.18767 0.28903
19.19317 0.28906
19.21496 0.28895
19.23676 0.28898
19.24225 0.28901
19.26405 0.28890
19.28586 0.28893
19.29134 0.28896
19.31315 0.28885
19.33495 0.28888
19.34042 0.28891
19.36223 0.28880
19.38405 0.28883
19.38952 0.28886
19.41133 0.28875
19.43315 0.28878
19.43860 0.28881
19.46042 0.28870
19.48224 0.28873
19.48769 0.28876
19.50951 0.28865
19.53134 0.28868
19.53678 0.28871
19.55861 0.28860
19.58044 0.28863
19.58587 0.28865
19.60769 0.28855
19.62952 0.28857
19.63495 0.28860
19.65678 0.28849
19.67862 0.28852
19.68404 0.28855
19.70588 0.28844
19.72772 0.28847
19.73313 0.28850
19.75497 0.28839
19.77682 0.28842
19.78222 0.28845
19.80406 0.28834
19.82591 0.28837
19.83130 0.28840
19.85315 0.28829
19.87500 0.28832
19.88039 0.28835
19.90224 0.28824
19.92410 0.28827
19.92948 0.28830
19.95134 0.28819
19.97320 0.28822
19.97857 0.28825
20.00042 0.28814
20.02229 0.28817
20.02765 0.28819
20.04951 0.28809
20.07138 0.28812
20.07674 0.28814
20.09860 0.28803
20.12047 0.28806
20.12582 0.28809
20.14769 0.28798
20.16957 0.28801
20.17492 0.28804
20.19679 0.28793
20.21867 0.28796
20.22400 0.28799
20.24588 0.28788
20.26776 0.28791
20.27309 0.28794
20.29498 0.28783
20.31686 0.28786
20.32218 0.28789
20.34406 0.28778
20.36595 0.28781
20.37126 0.28783
20.39315 0.28773
20.41504 0.28776
20.42035 0.28778
20.44224 0.28768
20.46414 0.28771
20.46944 0.28773
20.49134 0.28763
20.51324 0.28765
20.51853 0.28768
20.54043 0.28757
