#  Created by Sandify
#  https://sandify.org
#  Version: 0.2.8
#
#  Machine type: Polar
#    Max radius (mm): 100
#    Start point: none
#    End point: none
#  Content type: shape
#  Layer:
#    Shape: Circle
#    Name: polygon
#    Number of lobes: 1
#    Direction: clockwise
#    Visible: true
#    Initial width: 4
#    Initial height: 4
#    X offset: 2
#    Y offset: 10
#    Rotate (degrees): 0
#    Reverse path: true
#    Number of loops: 40
#    When transforming shape: smear
#    Scale: true
#      Scale (+/-): 61
#      Scale by: function
#        undefined: i
#    Spin: false
#    Track: true
#      Track size: 10
#      Track length: 0.3
#      Number of loops at each track position: 1
#      Scale track: false
#    Fine tuning:
#      Connect to next layer: line
#      Draw portion of path (%): 100
#      Backtrack at end (%): 0
#      Rotate starting point (%): 0
#  Reverse export path: false
#
# File name: 'spiral_finer_rotated'
# File type: thetarho
#

1.61890 0.31364
1.63899 0.31351
1.65908 0.31350
1.66702 0.31353
1.68712 0.31339
1.70722 0.31338
1.71515 0.31341
1.73525 0.31326
1.75536 0.31324
1.76330 0.31327
1.78341 0.31312
1.80353 0.31309
1.81146 0.31312
1.83158 0.31296
1.85171 0.31293
1.85963 0.31295
1.87976 0.31278
1.89990 0.31275
1.90783 0.31277
1.92798 0.31260
1.94813 0.31256
1.95606 0.31257
1.97622 0.31240
1.99638 0.31235
2.00432 0.31237
2.02448 0.31219
2.04467 0.31214
2.05259 0.31215
2.07277 0.31197
2.09297 0.31191
2.10090 0.31192
2.12109 0.31174
2.14130 0.31167
2.14923 0.31169
2.16944 0.31149
2.18967 0.31143
2.19760 0.31143
2.21783 0.31124
2.23807 0.31117
2.24600 0.31118
2.26624 0.31098
2.28650 0.31090
2.29443 0.31091
2.31469 0.31070
2.33497 0.31063
2.34290 0.31063
2.36318 0.31042
2.38347 0.31034
2.39141 0.31034
2.41170 0.31013
2.43202 0.31005
2.43996 0.31005
2.46027 0.30984
2.48061 0.30975
2.48854 0.30976
2.50887 0.30954
2.52923 0.30945
2.53716 0.30945
2.55752 0.30923
2.57789 0.30914
2.58583 0.30914
2.60621 0.30892
2.62660 0.30882
2.63454 0.30882
2.65494 0.30860
2.67535 0.30851
2.68329 0.30850
2.70371 0.30828
2.72415 0.30818
2.73208 0.30818
2.75252 0.30795
2.77298 0.30786
2.78092 0.30785
2.80138 0.30763
2.82186 0.30753
2.82980 0.30753
2.85028 0.30730
2.87078 0.30720
2.87873 0.30720
2.89923 0.30697
2.91976 0.30687
2.92769 0.30687
2.94822 0.30664
2.96877 0.30654
2.97671 0.30654
2.99725 0.30631
3.01782 0.30621
3.02577 0.30621
3.04634 0.30598
3.06693 0.30588
3.07486 0.30588
3.09545 0.30565
3.11607 0.30556
3.12400 0.30555
3.14462 0.30533
3.16525 0.30523
3.17320 0.30523
3.19383 0.30500
3.21449 0.30491
3.22243 0.30491
3.24308 0.30468
3.26376 0.30459
3.27170 0.30459
3.29238 0.30437
3.31308 0.30428
3.32101 0.30428
3.34171 0.30406
3.36243 0.30397
3.37036 0.30397
3.39108 0.30376
3.41182 0.30367
3.41975 0.30367
3.44049 0.30346
3.46126 0.30337
3.46918 0.30338
3.48995 0.30316
3.51073 0.30308
3.51865 0.30309
3.53943 0.30288
3.56023 0.30280
3.56814 0.30281
3.58895 0.30260
3.60977 0.30253
3.61768 0.30253
3.63850 0.30233
3.65934 0.30226
3.66726 0.30227
3.68810 0.30207
3.70896 0.30201
3.71686 0.30201
3.73772 0.30182
3.75859 0.30175
3.76648 0.30176
3.78736 0.30158
3.80825 0.30152
3.81614 0.30153
3.83704 0.30134
3.85794 0.30129
3.86582 0.30130
3.88673 0.30112
3.90765 0.30107
3.91553 0.30108
3.93645 0.30091
3.95739 0.30086
3.96527 0.30088
3.98620 0.30071
4.00715 0.30066
4.01501 0.30068
4.03596 0.30051
4.05693 0.30048
4.06478 0.30050
4.08575 0.30033
4.10673 0.30030
4.11458 0.30032
4.13556 0.30016
4.15655 0.30014
4.16437 0.30016
4.18536 0.30001
4.20636 0.29998
4.21418 0.30001
4.23518 0.29986
4.25619 0.29985
4.26402 0.29987
4.28503 0.29973
4.30605 0.29972
4.31385 0.29975
4.33487 0.29961
4.35590 0.29960
4.36368 0.29963
4.38471 0.29950
4.40575 0.29949
4.41353 0.29953
4.43456 0.29940
4.45560 0.29940
4.46338 0.29944
4.48442 0.29931
4.50547 0.29932
4.51323 0.29936
4.53428 0.29924
4.55533 0.29925
4.56306 0.29929
4.58412 0.29917
4.60517 0.29919
4.61291 0.29923
4.63397 0.29912
4.65503 0.29914
4.66275 0.29918
4.68381 0.29908
4.70487 0.29911
4.71257 0.29915
4.73363 0.29905
4.75469 0.29908
4.76239 0.29913
4.78345 0.29903
4.80452 0.29907
4.81220 0.29912
4.83326 0.29903
4.85433 0.29907
4.86198 0.29912
4.88304 0.29903
4.90411 0.29908
4.91177 0.29912
4.93283 0.29904
4.95390 0.29909
4.96152 0.29914
4.98258 0.29906
5.00365 0.29912
5.01127 0.29917
5.03233 0.29910
5.05339 0.29915
5.06099 0.29921
5.08205 0.29914
5.10311 0.29920
5.11069 0.29926
5.13175 0.29919
5.15280 0.29925
5.16037 0.29931
5.18142 0.29925
5.20247 0.29932
5.21003 0.29937
5.23107 0.29931
5.25212 0.29939
5.25965 0.29944
5.28069 0.29939
5.30173 0.29946
5.30925 0.29952
5.33029 0.29947
5.35132 0.29954
5.35883 0.29960
5.37986 0.29955
5.40089 0.29964
5.40837 0.29970
5.42939 0.29965
5.45041 0.29973
5.45789 0.29979
5.47891 0.29974
5.49992 0.29983
5.50738 0.29989
5.52838 0.29985
5.54939 0.29994
5.55684 0.30000
5.57784 0.29996
5.59884 0.30005
5.60626 0.30011
5.62726 0.30007
5.64825 0.30016
5.65565 0.30023
5.67664 0.30019
5.69762 0.30028
5.70502 0.30034
5.72600 0.30031
5.74697 0.30040
5.75434 0.30046
5.77531 0.30043
5.79628 0.30052
5.80364 0.30059
5.82461 0.30055
5.84556 0.30065
5.85291 0.30071
5.87386 0.30068
5.89481 0.30077
5.90214 0.30084
5.92308 0.30080
5.94402 0.30090
5.95134 0.30096
5.97227 0.30093
5.99320 0.30102
6.00051 0.30109
6.02143 0.30105
6.04235 0.30115
6.04964 0.30121
6.07056 0.30118
6.09147 0.30127
6.09875 0.30134
6.11965 0.30130
6.14056 0.30140
6.14781 0.30146
6.16871 0.30143
6.18961 0.30152
6.19686 0.30158
6.21775 0.30155
6.23863 0.30164
6.24587 0.30170
6.26675 0.30166
6.28763 0.30176
6.29485 0.30182
6.31573 0.30178
6.33660 0.30187
6.34381 0.30193
6.36467 0.30189
6.38554 0.30198
6.39273 0.30204
6.41359 0.30200
6.43445 0.30209
6.44163 0.30215
6.46248 0.30210
6.48333 0.30219
6.49050 0.30225
6.51135 0.30220
6.53219 0.30229
6.53935 0.30235
6.56018 0.30230
6.58102 0.30238
6.58817 0.30244
6.60900 0.30238
6.62983 0.30246
6.63696 0.30252
6.65779 0.30247
6.67861 0.30255
6.68574 0.30260
6.70656 0.30255
6.72738 0.30262
6.73450 0.30268
6.75532 0.30262
6.77613 0.30269
6.78324 0.30274
6.80405 0.30268
6.82486 0.30275
6.83197 0.30280
6.85277 0.30274
6.87358 0.30281
6.88066 0.30286
6.90146 0.30279
6.92227 0.30285
6.92935 0.30290
6.95015 0.30283
6.97095 0.30289
6.97802 0.30295
6.99882 0.30287
7.01962 0.30293
7.02668 0.30298
7.04748 0.30290
7.06827 0.30295
7.07533 0.30300
7.09613 0.30292
7.11692 0.30297
7.12397 0.30302
7.14476 0.30294
7.16556 0.30298
7.17260 0.30303
7.19339 0.30294
7.21419 0.30299
7.22122 0.30303
7.24202 0.30294
7.26281 0.30298
7.26984 0.30302
7.29063 0.30293
7.31142 0.30297
7.31845 0.30301
7.33924 0.30292
7.36004 0.30295
7.36706 0.30299
7.38785 0.30289
7.40865 0.30292
7.41567 0.30296
7.43647 0.30286
7.45727 0.30288
7.46427 0.30292
7.48507 0.30281
7.50588 0.30284
7.51288 0.30288
7.53368 0.30277
7.55449 0.30279
7.56148 0.30282
7.58229 0.30271
7.60310 0.30273
7.61010 0.30276
7.63091 0.30265
7.65173 0.30266
7.65871 0.30270
7.67953 0.30258
7.70035 0.30259
7.70734 0.30262
7.72816 0.30250
7.74899 0.30251
7.75597 0.30254
7.77680 0.30241
7.79763 0.30242
7.80462 0.30245
7.82545 0.30232
7.84628 0.30232
7.85326 0.30235
7.87410 0.30222
7.89495 0.30222
7.90192 0.30225
7.92276 0.30211
7.94362 0.30211
7.95059 0.30214
7.97144 0.30200
7.99230 0.30200
7.99928 0.30203
8.02013 0.30189
8.04100 0.30188
8.04797 0.30190
8.06884 0.30176
8.08972 0.30175
8.09668 0.30178
8.11756 0.30163
8.13845 0.30162
8.14541 0.30165
8.16629 0.30150
8.18719 0.30148
8.19416 0.30151
8.21505 0.30136
8.23596 0.30135
8.24292 0.30137
8.26383 0.30122
8.28474 0.30120
8.29169 0.30122
8.31261 0.30107
8.33353 0.30105
8.34050 0.30107
8.36142 0.30092
8.38236 0.30090
8.38931 0.30092
8.41024 0.30077
8.43119 0.30074
8.43815 0.30076
8.45910 0.30061
8.48005 0.30058
8.48700 0.30061
8.50796 0.30045
8.52893 0.30042
8.53588 0.30044
8.55685 0.30029
8.57783 0.30026
8.58477 0.30028
8.60575 0.30012
8.62675 0.30009
8.63369 0.30011
8.65469 0.29995
8.67569 0.29993
8.68263 0.29995
8.70364 0.29979
8.72465 0.29976
8.73159 0.29978
8.75261 0.29962
8.77364 0.29959
8.78057 0.29961
8.80160 0.29945
8.82264 0.29942
8.82957 0.29944
8.85061 0.29928
8.87166 0.29925
8.87859 0.29927
8.89965 0.29911
8.92071 0.29908
8.92764 0.29910
8.94870 0.29894
8.96978 0.29891
8.97671 0.29893
8.99778 0.29877
9.01887 0.29874
9.02578 0.29876
9.04687 0.29861
9.06797 0.29858
9.07489 0.29860
9.09599 0.29844
9.11710 0.29841
9.12401 0.29843
9.14512 0.29827
9.16625 0.29825
9.17316 0.29827
9.19428 0.29811
9.21541 0.29809
9.22232 0.29811
9.24345 0.29795
9.26459 0.29793
9.27150 0.29795
9.29264 0.29780
9.31380 0.29777
9.32070 0.29780
9.34185 0.29764
9.36302 0.29762
9.36991 0.29764
9.39107 0.29749
9.41225 0.29747
9.41913 0.29750
9.44031 0.29735
9.46150 0.29733
9.46838 0.29735
9.48957 0.29720
9.51077 0.29719
9.51764 0.29721
9.53884 0.29706
9.56004 0.29705
9.56692 0.29707
9.58812 0.29693
9.60934 0.29692
9.61620 0.29694
9.63742 0.29680
9.65865 0.29679
9.66549 0.29681
9.68672 0.29667
9.70795 0.29666
9.71480 0.29669
9.73604 0.29655
9.75728 0.29654
9.76412 0.29657
9.78537 0.29643
9.80662 0.29643
9.81344 0.29645
9.83469 0.29632
9.85595 0.29631
9.86278 0.29634
9.88404 0.29621
9.90531 0.29621
9.91212 0.29624
9.93339 0.29611
9.95467 0.29611
9.96147 0.29614
9.98274 0.29601
10.00402 0.29602
10.01082 0.29604
10.03211 0.29592
10.05340 0.29592
10.06017 0.29596
10.08146 0.29583
10.10275 0.29584
10.10953 0.29587
10.13082 0.29575
10.15212 0.29576
10.15889 0.29579
10.18019 0.29567
10.20149 0.29569
10.20825 0.29572
10.22955 0.29560
10.25087 0.29562
10.25760 0.29565
10.27891 0.29553
10.30023 0.29555
10.30696 0.29559
10.32828 0.29547
10.34960 0.29549
10.35631 0.29553
10.37763 0.29541
10.39896 0.29544
10.40567 0.29547
10.42699 0.29536
10.44832 0.29539
10.45501 0.29542
10.47633 0.29532
10.49767 0.29534
10.50434 0.29538
10.52567 0.29527
10.54701 0.29530
10.55368 0.29534
10.57501 0.29524
10.59635 0.29527
10.60300 0.29531
10.62433 0.29520
10.64567 0.29524
10.65232 0.29527
10.67365 0.29517
10.69500 0.29521
10.70163 0.29524
10.72297 0.29515
10.74431 0.29518
10.75092 0.29522
10.77226 0.29512
10.79361 0.29516
10.80021 0.29520
10.82155 0.29510
10.84290 0.29514
10.84949 0.29518
10.87083 0.29509
10.89218 0.29513
10.89875 0.29517
10.92009 0.29508
10.94144 0.29512
10.94800 0.29516
10.96935 0.29507
10.99070 0.29511
10.99724 0.29515
11.01859 0.29506
11.03994 0.29510
11.04646 0.29514
11.06781 0.29505
11.08916 0.29510
11.09567 0.29514
11.11702 0.29505
11.13837 0.29510
11.14487 0.29514
11.16621 0.29505
11.18757 0.29509
11.19405 0.29513
11.21540 0.29505
11.23675 0.29510
11.24321 0.29514
11.26456 0.29505
11.28591 0.29510
11.29237 0.29514
11.31372 0.29505
11.33507 0.29510
11.34151 0.29514
11.36286 0.29505
11.38421 0.29510
11.39063 0.29514
11.41198 0.29506
11.43333 0.29510
11.43974 0.29514
11.46109 0.29506
11.48244 0.29511
11.48883 0.29515
11.51018 0.29506
11.53152 0.29511
11.53791 0.29515
11.55925 0.29506
11.58060 0.29511
11.58697 0.29515
11.60832 0.29506
11.62967 0.29511
11.63602 0.29515
11.65737 0.29506
11.67872 0.29511
11.68506 0.29515
11.70641 0.29506
11.72775 0.29511
11.73407 0.29515
11.75542 0.29506
11.77677 0.29510
11.78309 0.29514
11.80443 0.29505
11.82578 0.29509
11.83208 0.29513
11.85343 0.29504
11.87478 0.29509
11.88106 0.29513
11.90241 0.29503
11.92376 0.29508
11.93003 0.29511
11.95138 0.29502
11.97273 0.29506
11.97899 0.29510
12.00034 0.29501
12.02170 0.29505
12.02794 0.29508
12.04929 0.29499
12.07064 0.29503
12.07688 0.29506
12.09823 0.29497
12.11959 0.29500
12.12581 0.29504
12.14716 0.29494
12.16852 0.29498
12.17473 0.29501
12.19608 0.29491
12.21744 0.29495
12.22363 0.29498
12.24499 0.29488
12.26636 0.29491
12.27254 0.29495
12.29390 0.29484
12.31527 0.29488
12.32143 0.29491
12.34280 0.29481
12.36417 0.29484
12.37033 0.29487
12.39170 0.29476
12.41307 0.29479
12.41922 0.29482
12.44059 0.29471
12.46196 0.29474
12.46810 0.29477
12.48948 0.29466
12.51086 0.29469
12.51698 0.29472
12.53836 0.29460
12.55974 0.29463
12.56587 0.29466
12.58725 0.29454
12.60864 0.29456
12.61474 0.29459
12.63613 0.29448
12.65752 0.29449
12.66363 0.29452
12.68502 0.29441
12.70642 0.29442
12.71251 0.29445
12.73390 0.29433
12.75531 0.29435
12.76139 0.29438
12.78279 0.29425
12.80420 0.29427
12.81027 0.29430
12.83168 0.29417
12.85310 0.29418
12.85917 0.29421
12.88058 0.29408
12.90200 0.29409
12.90806 0.29412
12.92948 0.29399
12.95091 0.29400
12.95696 0.29403
12.97838 0.29390
12.99982 0.29390
13.00587 0.29393
13.02730 0.29380
13.04874 0.29380
13.05477 0.29383
13.07622 0.29370
13.09767 0.29370
13.10370 0.29372
13.12515 0.29359
13.14661 0.29359
13.15263 0.29361
13.17409 0.29348
13.19556 0.29348
13.20158 0.29350
13.22305 0.29336
13.24452 0.29336
13.25053 0.29339
13.27201 0.29325
13.29349 0.29325
13.29950 0.29327
13.32098 0.29313
13.34247 0.29312
13.34847 0.29315
13.36996 0.29301
13.39146 0.29300
13.39746 0.29302
13.41896 0.29288
13.44047 0.29287
13.44647 0.29290
13.46798 0.29275
13.48950 0.29275
13.49548 0.29277
13.51700 0.29262
13.53853 0.29261
13.54451 0.29264
13.56604 0.29249
13.58758 0.29248
13.59356 0.29250
13.61510 0.29236
13.63665 0.29235
13.64262 0.29237
13.66417 0.29222
13.68573 0.29221
13.69170 0.29223
13.71326 0.29209
13.73483 0.29208
13.74080 0.29210
13.76237 0.29195
13.78395 0.29194
13.78991 0.29196
13.81149 0.29181
13.83308 0.29180
13.83904 0.29182
13.86063 0.29168
13.88223 0.29167
13.88819 0.29169
13.90978 0.29154
13.93139 0.29153
13.93736 0.29155
13.95896 0.29141
13.98058 0.29139
13.98653 0.29141
14.00815 0.29127
14.02978 0.29126
14.03573 0.29128
14.05736 0.29114
14.07900 0.29113
14.08494 0.29115
14.10658 0.29100
14.12823 0.29100
14.13418 0.29102
14.15583 0.29087
14.17749 0.29086
14.18342 0.29089
14.20508 0.29074
14.22675 0.29074
14.23269 0.29076
14.25436 0.29062
14.27604 0.29061
14.28197 0.29063
14.30365 0.29049
14.32534 0.29049
14.33127 0.29051
14.35296 0.29037
14.37465 0.29037
14.38058 0.29039
14.40228 0.29025
14.42398 0.29025
14.42991 0.29027
14.45162 0.29014
14.47333 0.29014
14.47925 0.29016
14.50097 0.29003
14.52269 0.29003
14.52860 0.29005
14.55032 0.28992
14.57206 0.28992
14.57798 0.28995
14.59971 0.28982
14.62144 0.28982
14.62735 0.28985
14.64909 0.28972
14.67084 0.28973
14.67674 0.28975
14.69849 0.28962
14.72024 0.28963
14.72615 0.28966
14.74790 0.28954
14.76966 0.28955
14.77556 0.28958
14.79732 0.28945
14.81908 0.28947
14.82497 0.28949
14.84674 0.28937
14.86851 0.28939
14.87440 0.28942
14.89617 0.28930
14.91794 0.28932
14.92384 0.28935
14.94562 0.28924
14.96740 0.28926
14.97328 0.28929
14.99506 0.28917
15.01685 0.28920
15.02272 0.28923
15.04451 0.28912
15.06630 0.28914
15.07217 0.28918
15.09396 0.28907
15.11576 0.28910
15.12162 0.28913
15.14341 0.28903
15.16520 0.28906
15.17107 0.28909
15.19286 0.28899
15.21466 0.28902
15.22052 0.28905
15.24232 0.28896
15.26412 0.28900
15.26997 0.28903
15.29176 0.28893
15.31357 0.28897
15.31941 0.28901
15.34121 0.28891
15.36301 0.28896
15.36886 0.28899
15.39066 0.28890
15.41246 0.28895
15.41829 0.28898
15.44009 0.28889
15.46189 0.28894
15.46771 0.28898
15.48952 0.28889
15.51132 0.28894
15.51714 0.28898
15.53894 0.28890
15.56075 0.28896
15.56655 0.28899
15.58835 0.28891
15.61015 0.28897
15.61595 0.28901
15.63775 0.28893
15.65955 0.28899
15.66534 0.28903
15.68714 0.28895
15.70894 0.28901
15.71472 0.28905
15.73652 0.28898
15.75831 0.28904
15.76408 0.28908
15.78587 0.28901
15.80767 0.28908
15.81343 0.28912
15.83522 0.28905
15.85701 0.28912
15.86276 0.28916
15.88455 0.28910
15.90633 0.28917
15.91207 0.28921
15.93386 0.28914
15.95564 0.28922
15.96137 0.28926
15.98315 0.28920
16.00493 0.28927
16.01065 0.28931
16.03243 0.28925
16.05421 0.28933
16.05991 0.28937
16.08168 0.28932
16.10345 0.28939
16.10914 0.28944
16.13091 0.28938
16.15267 0.28946
16.15836 0.28950
16.18012 0.28945
16.20188 0.28953
16.20755 0.28957
16.22931 0.28952
16.25106 0.28960
16.25673 0.28964
16.27848 0.28959
16.30023 0.28967
16.30587 0.28972
16.32761 0.28966
16.34936 0.28975
16.35498 0.28979
16.37673 0.28974
16.39846 0.28983
16.40408 0.28987
16.42582 0.28982
16.44755 0.28990
16.45315 0.28995
16.47488 0.28990
16.49661 0.28998
16.50220 0.29003
16.52392 0.28998
16.54565 0.29006
16.55122 0.29011
16.57293 0.29006
16.59465 0.29014
16.60021 0.29019
16.62192 0.29014
16.64363 0.29022
16.64917 0.29027
16.67088 0.29022
16.69258 0.29030
16.69811 0.29035
16.71981 0.29029
16.74151 0.29038
16.74703 0.29042
16.76872 0.29037
16.79041 0.29046
16.79592 0.29050
16.81761 0.29045
16.83930 0.29053
16.84478 0.29057
16.86646 0.29052
16.88814 0.29060
16.89362 0.29064
16.91529 0.29059
16.93697 0.29067
16.94243 0.29071
16.96410 0.29065
16.98577 0.29073
16.99120 0.29077
17.01287 0.29072
17.03454 0.29080
17.03996 0.29084
17.06163 0.29078
17.08329 0.29085
17.08870 0.29089
17.11036 0.29083
17.13202 0.29091
17.13741 0.29095
17.15907 0.29088
17.18072 0.29096
17.18611 0.29099
17.20776 0.29093
17.22941 0.29100
17.23477 0.29104
17.25642 0.29097
17.27807 0.29103
17.28342 0.29107
17.30507 0.29100
17.32672 0.29106
17.33205 0.29110
17.35369 0.29103
17.37533 0.29109
17.38065 0.29113
17.40230 0.29105
17.42394 0.29111
17.42924 0.29114
17.45088 0.29106
17.47252 0.29112
17.47781 0.29115
17.49945 0.29107
17.52109 0.29112
17.52637 0.29116
17.54801 0.29107
17.56965 0.29112
17.57491 0.29115
17.59655 0.29106
17.61820 0.29111
17.62344 0.29114
17.64508 0.29105
17.66672 0.29109
17.67195 0.29112
17.69359 0.29102
17.71523 0.29106
17.72045 0.29109
17.74210 0.29099
17.76375 0.29103
17.76895 0.29106
17.79060 0.29095
17.81225 0.29098
17.81743 0.29101
17.83908 0.29090
17.86074 0.29093
17.86591 0.29096
17.88757 0.29085
17.90923 0.29087
17.91439 0.29089
17.93604 0.29078
17.95771 0.29080
17.96286 0.29082
17.98452 0.29070
18.00619 0.29072
18.01133 0.29074
18.03299 0.29061
18.05467 0.29063
18.05980 0.29065
18.08147 0.29052
18.10316 0.29053
18.10827 0.29055
18.12995 0.29041
18.15165 0.29042
18.15674 0.29044
18.17843 0.29030
18.20014 0.29030
18.20522 0.29032
18.22692 0.29018
18.24863 0.29017
18.25370 0.29019
18.27541 0.29004
18.29714 0.29003
18.30219 0.29005
18.32391 0.28990
18.34564 0.28989
18.35070 0.28990
18.37243 0.28975
18.39417 0.28973
18.39921 0.28975
18.42095 0.28959
18.44270 0.28957
18.44773 0.28958
18.46949 0.28942
18.49126 0.28940
18.49628 0.28941
18.51804 0.28924
18.53983 0.28922
18.54484 0.28923
18.56662 0.28906
18.58841 0.28903
18.59341 0.28904
18.61521 0.28886
18.63702 0.28883
18.64201 0.28884
18.66382 0.28866
18.68564 0.28862
18.69062 0.28863
18.71244 0.28845
18.73429 0.28841
18.73926 0.28842
18.76111 0.28823
18.78296 0.28819
18.78793 0.28820
18.80978 0.28801
18.83166 0.28796
18.83661 0.28797
18.85849 0.28778
18.88038 0.28772
18.88533 0.28773
18.90722 0.28754
18.92913 0.28748
18.93407 0.28749
18.95598 0.28729
18.97791 0.28724
18.98284 0.28724
19.00477 0.28704
19.02672 0.28698
19.03165 0.28699
19.05360 0.28679
19.07557 0.28672
19.08048 0.28673
19.10245 0.28653
19.12444 0.28646
19.12936 0.28647
19.15135 0.28626
19.17336 0.28619
19.17827 0.28620
19.20028 0.28599
19.22231 0.28592
19.22721 0.28593
19.24924 0.28572
19.27129 0.28565
19.27618 0.28565
19.29823 0.28544
19.32031 0.28537
19.32520 0.28538
19.34727 0.28517
19.36937 0.28510
19.37426 0.28510
19.39635 0.28489
19.41846 0.28482
19.42335 0.28482
19.44546 0.28461
19.46760 0.28453
19.47248 0.28454
19.49462 0.28432
19.51678 0.28425
19.52164 0.28426
19.54380 0.28404
19.56598 0.28397
19.57086 0.28397
19.59304 0.28376
19.61524 0.28369
19.62011 0.28369
19.64232 0.28348
19.66454 0.28341
19.66940 0.28342
19.69162 0.28321
19.71387 0.28314
19.71873 0.28314
19.74098 0.28293
19.76325 0.28286
19.76810 0.28286
19.79037 0.28265
19.81266 0.28259
19.81752 0.28259
19.83981 0.28238
19.86212 0.28232
19.86697 0.28232
19.88928 0.28212
19.91161 0.28205
19.91646 0.28206
19.93880 0.28186
19.96115 0.28180
19.96599 0.28180
19.98835 0.28160
20.01072 0.28154
20.01556 0.28155
20.03794 0.28135
20.06033 0.28129
20.06518 0.28130
20.08757 0.28111
20.10998 0.28105
20.11482 0.28106
20.13723 0.28087
20.15967 0.28082
20.16449 0.28083
20.18693 0.28064
20.20938 0.28059
20.21421 0.28060
20.23666 0.28042
20.25913 0.28037
20.26396 0.28038
20.28643 0.28020
20.30891 0.28016
20.31375 0.28017
20.33623 0.28000
20.35873 0.27996
20.36355 0.27998
20.38605 0.27980
